#[FileName]
##
#FileName=
#[FileName]
##
#Scan_FileName=D:\Измерения\Бабаев А\2022 spec\20221109 NPLs films\WingsMPA_633ex_1mmslit.arc_data
## *** Note this is the base FileName and may not be the final Scan_FileName
#Routine_FileName= "Not Saved"
#Type=SinglePoint
#TimeStamp=11/9/2022 4:05:47 PM
##
#[NCL]
##
#Serial=210436
#Model=Spectra-Hub1
#WaveUnits=nm
#routine=ScanMono1
#Mono1Use=Active
#Mono1Serial=25580345
#Mono2Use=none
#Ch1Use=Active
#Ch2Use=none
#Ch3Use=none
#Shutter1Use=none
#Shutter2Use=none
#FilterUse=none
#FilterUse2=none
##
#[NCL_Acquisition]
##
#IntegrationTime=200
#IntegrationTime_Units=milliSeconds
#Storage=average
#Operator=
#DataCalc=ch1
#Data_Channel_Num=1
#RefCalc=ch1
#Readings_per_Point=2
#DarkReading=1
#Cycles=4
#Cycle_Delay=0
#Cycle_Delay_Units=milliSeconds
##
#[NCL_Acquisition_Mono1]
##
#Start_nm=1000.0000
#Start_(nm)=1000.0000
#Stop_nm=2000.0000
#Stop_nm(nm)=2000.0000
#Increment=2.0000
#Increment_(nm)=2.0000
#PauseAfterMove=0
#PostMoveSettleTime=0
#Backwards_Scan=false
##
#[NCL_Triggers]
##
#InputTriggerOn=0
#InputTriggerOn_Str=false
#OutputTriggerOn=0
#OutputTriggerOn_Str=false
##
#[NCL_Ch1]
##
#Units=Raw Counts
#Unit_Index=0
#Type=IR
#Mode=voltage
#Gain=2
#unipolar=0
##
#[SR510_LockIn]
##
#SR510_Present=0
##
#[NCL_Mono1]
##
#Model=SP-2-500i
#Serial=25580345
#Grating=3
#Grating_Density=150
#Grating_Blaze=1.2um
#Use_Band_Pass_Slits=0
#Entry_Index=1
#Entry=side
#EntryType=Manual Slit
#EntryWidth=0
#EntryWidth_units=microns
#Exit_Index=4
#Exit=side
#ExitType=Manual Slit
#ExitWidth=0
#ExitWidth_units=microns
#Use_BandPass_Slit=0
#
#Wavelength	         Reading
#

 1000.0000	            1.875
 1002.0000	             0.75
 1004.0000	            5.125
 1006.0000	             1.75
 1008.0000	            -2.25
 1010.0000	            3.625
 1012.0000	             1.75
 1014.0000	               -2
 1016.0000	            4.375
 1018.0000	           -0.375
 1020.0000	           -4.875
 1022.0000	            2.625
 1024.0000	                6
 1026.0000	            1.875
 1028.0000	           -0.625
 1030.0000	            0.375
 1032.0000	            7.375
 1034.0000	             -3.5
 1036.0000	           -3.125
 1038.0000	             1.75
 1040.0000	             2.25
 1042.0000	           -1.375
 1044.0000	            -2.25
 1046.0000	            -1.75
 1048.0000	             0.25
 1050.0000	             0.25
 1052.0000	            -0.25
 1054.0000	            0.625
 1056.0000	           -2.875
 1058.0000	             -0.5
 1060.0000	           -3.375
 1062.0000	               -1
 1064.0000	            -2.75
 1066.0000	           -3.375
 1068.0000	             0.25
 1070.0000	            6.125
 1072.0000	               -1
 1074.0000	             0.75
 1076.0000	            4.875
 1078.0000	           -0.875
 1080.0000	            6.375
 1082.0000	           -1.875
 1084.0000	           -1.375
 1086.0000	            0.125
 1088.0000	            1.625
 1090.0000	             3.75
 1092.0000	              0.5
 1094.0000	              2.5
 1096.0000	            5.125
 1098.0000	            3.125
 1100.0000	                3
 1102.0000	            3.875
 1104.0000	              1.5
 1106.0000	             0.75
 1108.0000	            1.125
 1110.0000	           -0.875
 1112.0000	               -1
 1114.0000	            1.875
 1116.0000	           -0.125
 1118.0000	                0
 1120.0000	             0.25
 1122.0000	             -2.5
 1124.0000	           -1.125
 1126.0000	             4.25
 1128.0000	           -0.125
 1130.0000	           -1.125
 1132.0000	            -0.25
 1134.0000	              2.5
 1136.0000	            -2.25
 1138.0000	            -0.25
 1140.0000	           -1.375
 1142.0000	                0
 1144.0000	              3.5
 1146.0000	           -1.625
 1148.0000	            -4.75
 1150.0000	                2
 1152.0000	            4.875
 1154.0000	            1.875
 1156.0000	                3
 1158.0000	             1.75
 1160.0000	            2.125
 1162.0000	                5
 1164.0000	            -0.25
 1166.0000	            3.875
 1168.0000	            3.125
 1170.0000	                3
 1172.0000	                2
 1174.0000	            1.625
 1176.0000	            0.875
 1178.0000	            5.625
 1180.0000	            1.125
 1182.0000	             5.75
 1184.0000	            5.375
 1186.0000	             1.75
 1188.0000	            6.875
 1190.0000	             3.25
 1192.0000	             4.25
 1194.0000	             5.25
 1196.0000	             6.25
 1198.0000	             0.75
 1200.0000	            4.375
 1202.0000	            4.125
 1204.0000	                4
 1206.0000	             4.75
 1208.0000	             5.25
 1210.0000	            3.875
 1212.0000	             5.25
 1214.0000	            5.125
 1216.0000	            2.625
 1218.0000	            7.375
 1220.0000	             3.75
 1222.0000	             7.75
 1224.0000	             7.25
 1226.0000	             5.25
 1228.0000	              6.5
 1230.0000	                5
 1232.0000	            4.875
 1234.0000	            3.375
 1236.0000	           10.125
 1238.0000	            6.625
 1240.0000	            11.25
 1242.0000	             6.25
 1244.0000	           11.625
 1246.0000	            8.375
 1248.0000	            9.625
 1250.0000	           11.375
 1252.0000	              9.5
 1254.0000	                9
 1256.0000	            9.875
 1258.0000	           12.125
 1260.0000	            15.25
 1262.0000	               13
 1264.0000	            17.25
 1266.0000	           15.375
 1268.0000	            22.75
 1270.0000	            16.75
 1272.0000	             18.5
 1274.0000	           21.125
 1276.0000	           17.875
 1278.0000	            18.25
 1280.0000	             18.5
 1282.0000	           21.875
 1284.0000	           20.625
 1286.0000	           19.125
 1288.0000	             21.5
 1290.0000	           20.625
 1292.0000	            23.25
 1294.0000	           22.875
 1296.0000	               26
 1298.0000	            26.75
 1300.0000	               26
 1302.0000	            31.25
 1304.0000	             28.5
 1306.0000	           27.125
 1308.0000	           31.625
 1310.0000	           30.125
 1312.0000	             35.5
 1314.0000	               34
 1316.0000	               37
 1318.0000	               42
 1320.0000	           41.875
 1322.0000	           39.625
 1324.0000	            39.75
 1326.0000	            42.25
 1328.0000	           44.625
 1330.0000	            49.75
 1332.0000	           45.375
 1334.0000	           50.625
 1336.0000	            53.25
 1338.0000	           55.875
 1340.0000	           61.125
 1342.0000	           53.625
 1344.0000	             59.5
 1346.0000	            65.75
 1348.0000	             66.5
 1350.0000	            62.25
 1352.0000	           59.375
 1354.0000	               63
 1356.0000	           65.125
 1358.0000	           59.875
 1360.0000	            68.75
 1362.0000	            73.25
 1364.0000	               70
 1366.0000	           73.875
 1368.0000	           73.875
 1370.0000	            76.25
 1372.0000	            78.75
 1374.0000	             77.5
 1376.0000	               83
 1378.0000	           83.375
 1380.0000	           81.375
 1382.0000	           84.125
 1384.0000	           91.375
 1386.0000	           92.375
 1388.0000	            97.25
 1390.0000	           98.875
 1392.0000	          101.125
 1394.0000	           103.75
 1396.0000	           104.75
 1398.0000	           108.25
 1400.0000	           109.25
 1402.0000	           111.75
 1404.0000	              113
 1406.0000	          121.375
 1408.0000	              118
 1410.0000	            122.5
 1412.0000	           120.75
 1414.0000	          128.625
 1416.0000	           126.25
 1418.0000	          135.375
 1420.0000	           129.25
 1422.0000	            136.5
 1424.0000	              129
 1426.0000	          146.125
 1428.0000	          152.625
 1430.0000	          156.875
 1432.0000	           160.75
 1434.0000	          159.625
 1436.0000	              166
 1438.0000	              170
 1440.0000	          169.875
 1442.0000	            182.5
 1444.0000	          182.875
 1446.0000	          187.625
 1448.0000	           187.75
 1450.0000	          198.375
 1452.0000	            200.5
 1454.0000	           197.75
 1456.0000	          202.375
 1458.0000	          199.625
 1460.0000	           209.25
 1462.0000	          209.125
 1464.0000	           210.25
 1466.0000	           213.25
 1468.0000	            212.5
 1470.0000	          213.625
 1472.0000	           214.75
 1474.0000	          218.375
 1476.0000	          224.625
 1478.0000	           226.75
 1480.0000	           235.75
 1482.0000	           233.75
 1484.0000	          236.875
 1486.0000	            245.5
 1488.0000	            245.5
 1490.0000	            245.5
 1492.0000	          245.375
 1494.0000	           249.25
 1496.0000	            253.5
 1498.0000	              254
 1500.0000	              254
 1502.0000	          257.625
 1504.0000	              263
 1506.0000	              267
 1508.0000	          261.625
 1510.0000	           266.25
 1512.0000	           270.25
 1514.0000	            270.5
 1516.0000	           269.75
 1518.0000	           270.25
 1520.0000	          266.375
 1522.0000	          273.375
 1524.0000	          271.375
 1526.0000	           271.75
 1528.0000	              274
 1530.0000	          280.875
 1532.0000	          281.125
 1534.0000	          272.625
 1536.0000	          276.875
 1538.0000	            274.5
 1540.0000	           270.75
 1542.0000	              275
 1544.0000	          273.625
 1546.0000	           275.25
 1548.0000	          276.375
 1550.0000	          275.625
 1552.0000	              278
 1554.0000	          276.375
 1556.0000	           277.25
 1558.0000	              278
 1560.0000	           281.75
 1562.0000	          274.875
 1564.0000	          277.375
 1566.0000	           274.25
 1568.0000	          279.125
 1570.0000	           274.25
 1572.0000	            270.5
 1574.0000	          271.375
 1576.0000	           274.75
 1578.0000	              271
 1580.0000	          265.375
 1582.0000	              265
 1584.0000	          271.125
 1586.0000	          272.625
 1588.0000	            270.5
 1590.0000	           272.25
 1592.0000	          270.375
 1594.0000	           265.75
 1596.0000	              264
 1598.0000	          262.125
 1600.0000	           262.25
 1602.0000	          259.125
 1604.0000	              259
 1606.0000	          256.875
 1608.0000	            258.5
 1610.0000	          255.875
 1612.0000	           251.75
 1614.0000	          251.125
 1616.0000	          248.875
 1618.0000	          249.125
 1620.0000	          244.375
 1622.0000	          243.875
 1624.0000	              246
 1626.0000	           244.75
 1628.0000	          243.625
 1630.0000	              238
 1632.0000	          236.625
 1634.0000	           239.25
 1636.0000	          232.375
 1638.0000	           227.25
 1640.0000	          224.625
 1642.0000	          220.625
 1644.0000	            219.5
 1646.0000	          212.375
 1648.0000	          212.375
 1650.0000	           213.25
 1652.0000	           208.25
 1654.0000	          204.875
 1656.0000	          203.875
 1658.0000	          201.125
 1660.0000	          197.375
 1662.0000	           191.75
 1664.0000	           194.75
 1666.0000	          186.875
 1668.0000	            187.5
 1670.0000	              185
 1672.0000	              180
 1674.0000	          180.625
 1676.0000	           176.75
 1678.0000	              175
 1680.0000	          169.375
 1682.0000	          157.625
 1684.0000	          164.625
 1686.0000	          156.375
 1688.0000	           162.25
 1690.0000	          152.875
 1692.0000	           154.25
 1694.0000	          152.875
 1696.0000	          138.375
 1698.0000	          144.625
 1700.0000	          141.625
 1702.0000	          135.875
 1704.0000	          136.375
 1706.0000	          133.375
 1708.0000	              129
 1710.0000	           136.75
 1712.0000	           135.75
 1714.0000	            129.5
 1716.0000	           131.25
 1718.0000	            128.5
 1720.0000	           129.25
 1722.0000	          124.625
 1724.0000	              121
 1726.0000	           123.25
 1728.0000	          120.125
 1730.0000	          120.375
 1732.0000	           123.25
 1734.0000	          116.625
 1736.0000	          116.125
 1738.0000	          114.625
 1740.0000	          109.125
 1742.0000	          111.125
 1744.0000	           107.75
 1746.0000	          104.125
 1748.0000	           107.25
 1750.0000	              106
 1752.0000	          104.375
 1754.0000	          101.875
 1756.0000	           98.125
 1758.0000	             97.5
 1760.0000	             91.5
 1762.0000	             91.5
 1764.0000	           87.625
 1766.0000	           90.625
 1768.0000	            87.75
 1770.0000	             86.5
 1772.0000	           78.375
 1774.0000	           79.875
 1776.0000	               82
 1778.0000	               84
 1780.0000	           80.375
 1782.0000	           77.625
 1784.0000	            73.25
 1786.0000	            74.25
 1788.0000	           73.625
 1790.0000	            72.25
 1792.0000	               72
 1794.0000	           68.625
 1796.0000	            69.25
 1798.0000	               66
 1800.0000	           66.125
 1802.0000	           63.375
 1804.0000	           64.875
 1806.0000	            60.25
 1808.0000	             53.5
 1810.0000	           58.625
 1812.0000	               57
 1814.0000	            53.75
 1816.0000	               54
 1818.0000	            49.25
 1820.0000	           49.625
 1822.0000	           47.875
 1824.0000	            46.75
 1826.0000	            46.25
 1828.0000	           46.125
 1830.0000	            43.25
 1832.0000	             41.5
 1834.0000	           42.875
 1836.0000	            39.75
 1838.0000	            38.25
 1840.0000	           38.875
 1842.0000	           34.625
 1844.0000	           38.625
 1846.0000	            34.25
 1848.0000	            29.75
 1850.0000	           29.125
 1852.0000	             24.5
 1854.0000	           29.875
 1856.0000	               26
 1858.0000	            29.25
 1860.0000	             28.5
 1862.0000	            25.25
 1864.0000	           26.875
 1866.0000	           26.375
 1868.0000	           26.125
 1870.0000	           28.875
 1872.0000	               27
 1874.0000	           22.125
 1876.0000	           20.375
 1878.0000	           24.875
 1880.0000	               23
 1882.0000	            20.75
 1884.0000	           21.125
 1886.0000	           24.625
 1888.0000	           19.625
 1890.0000	               20
 1892.0000	            23.75
 1894.0000	           20.625
 1896.0000	           21.125
 1898.0000	            19.75
 1900.0000	            16.25
 1902.0000	            18.75
 1904.0000	           15.625
 1906.0000	            16.25
 1908.0000	           15.625
 1910.0000	             15.5
 1912.0000	               18
 1914.0000	             18.5
 1916.0000	               14
 1918.0000	            16.75
 1920.0000	            16.25
 1922.0000	           16.375
 1924.0000	           14.375
 1926.0000	           13.625
 1928.0000	             16.5
 1930.0000	           13.625
 1932.0000	             14.5
 1934.0000	           12.625
 1936.0000	           17.375
 1938.0000	           13.625
 1940.0000	             13.5
 1942.0000	            12.25
 1944.0000	            11.25
 1946.0000	            10.75
 1948.0000	            8.625
 1950.0000	           11.875
 1952.0000	            8.875
 1954.0000	            9.125
 1956.0000	            7.875
 1958.0000	                9
 1960.0000	            9.125
 1962.0000	             8.25
 1964.0000	             6.25
 1966.0000	            3.625
 1968.0000	            6.125
 1970.0000	              6.5
 1972.0000	               10
 1974.0000	             4.75
 1976.0000	            1.375
 1978.0000	            6.375
 1980.0000	            3.375
 1982.0000	            4.875
 1984.0000	             7.25
 1986.0000	             4.75
 1988.0000	             6.25
 1990.0000	            8.125
 1992.0000	             5.75
 1994.0000	                3
 1996.0000	              7.5
 1998.0000	                4
 2000.0000	             5.25
