# Time (sec),Drain (A),Drain (V)
0.000,0.000350208,2.0
0.490,0.00035076,2.0
0.980,0.000354136,2.0
1.540,0.000358475,2.0
2.020,0.000362263,2.0
2.480,0.000365945,2.0
3.020,0.00036994,2.0
3.590,0.000374591,2.0
4.080,0.000378292,2.0
4.520,0.000381798,2.0
5.000,0.000385307,2.0
5.510,0.000388448,2.0
6.060,0.000392374,2.0
6.500,0.000395346,2.0
6.920,0.000397811,2.0
7.420,0.000401133,2.0
7.880,0.000404162,2.0
8.330,0.000406597,2.0
8.769,0.00040889,2.0
9.249,0.000411351,2.0
9.689,0.000413183,2.0
10.169,0.000415721,2.0
10.649,0.000418282,2.0
11.169,0.000420643,2.0
11.689,0.000423059,2.0
12.249,0.000425625,2.0
12.779,0.00042789,2.0
13.319,0.000430306,2.0
13.859,0.000432392,2.0
14.299,0.000434078,2.0
14.729,0.000435665,2.0
15.159,0.000437194,2.0
15.669,0.000439107,2.0
16.149,0.000440612,2.0
16.609,0.000442144,2.0
17.069,0.000443798,2.0
17.569,0.000445338,2.0
18.039,0.000446691,2.0
18.519,0.000448006,2.0
18.929,0.000449035,2.0
19.319,0.000450318,2.0
19.749,0.00045143,2.0
20.179,0.000452811,2.0
20.619,0.000454038,2.0
21.049,0.000455079,2.0
21.579,0.000456307,2.0
22.049,0.000457599,2.0
22.509,0.000458739,2.0
22.969,0.000459779,2.0
23.409,0.000460869,2.0
23.909,0.000461878,2.0
24.369,0.000462782,2.0
24.838,0.000464044,2.0
25.288,0.000465027,2.0
25.758,0.000465785,2.0
26.218,0.00046659,2.0
26.668,0.000467727,2.0
27.128,0.000468298,2.0
27.588,0.000469183,2.0
28.018,0.000469927,2.0
28.468,0.000470713,2.0
28.928,0.000471625,2.0
29.418,0.000472367,2.0
29.898,0.000473329,2.0
30.358,0.000473946,2.0
30.888,0.000474612,2.0
31.378,0.000475337,2.0
31.848,0.00047641,2.0
32.328,0.000477117,2.0
32.828,0.000477827,2.0
33.328,0.000478699,2.0
33.828,0.000479481,2.0
34.338,0.000480177,2.0
34.848,0.000480851,2.0
35.348,0.000481437,2.0
35.868,0.000482069,2.0
36.358,0.000482928,2.0
36.868,0.000483598,2.0
37.338,0.000484105,2.0
37.798,0.000484611,2.0
38.268,0.000485203,2.0
38.738,0.000485741,2.0
39.218,0.000486276,2.0
39.708,0.000486994,2.0
40.238,0.00048746,2.0
40.708,0.000488005,2.0
41.168,0.000488868,2.0
41.647,0.000489271,2.0
42.127,0.000489879,2.0
42.587,0.000490364,2.0
43.037,0.00049064,2.0
43.487,0.000491167,2.0
43.967,0.000491471,2.0
44.437,0.000492055,2.0
44.907,0.000492666,2.0
45.387,0.000493051,2.0
45.867,0.000493498,2.0
46.407,0.000494046,2.0
46.897,0.000494236,2.0
47.387,0.00049463,2.0
47.867,0.00049513,2.0
48.357,0.000495625,2.0
48.867,0.000496134,2.0
49.387,0.000496389,2.0
49.907,0.000496676,2.0
50.407,0.000497293,2.0
50.927,0.000498005,2.0
51.457,0.000498371,2.0
51.977,0.00049855,2.0
52.477,0.000498996,2.0
52.997,0.000499325,2.0
53.497,0.000499737,2.0
53.997,0.000500288,2.0
54.487,0.000500674,2.0
55.007,0.000501085,2.0
55.517,0.000501392,2.0
56.047,0.000501817,2.0
56.577,0.000502323,2.0
57.097,0.000502576,2.0
57.597,0.000502932,2.0
58.126,0.000503533,2.0
58.646,0.000504048,2.0
59.196,0.000504199,2.0
59.726,0.000504478,2.0
60.256,0.000504824,2.0
60.786,0.000504934,2.0
61.296,0.000505124,2.0
61.876,0.000505644,2.0
62.416,0.000505937,2.0
62.946,0.000506359,2.0
63.486,0.000506654,2.0
63.966,0.000507053,2.0
64.466,0.000506879,2.0
64.996,0.000507128,2.0
65.526,0.000507555,2.0
66.026,0.000507579,2.0
66.576,0.000507739,2.0
67.106,0.000508301,2.0
67.656,0.000508683,2.0
68.206,0.000509105,2.0
68.746,0.0005093,2.0
69.276,0.000509558,2.0
69.806,0.000509888,2.0
70.356,0.000510232,2.0
70.896,0.000510684,2.0
71.426,0.00051077,2.0
71.966,0.000510936,2.0
72.516,0.000511339,2.0
73.046,0.000511459,2.0
73.536,0.000512003,2.0
74.036,0.000512284,2.0
74.525,0.000512265,2.0
75.035,0.000512344,2.0
75.535,0.000512762,2.0
76.035,0.000513055,2.0
76.545,0.000513061,2.0
77.095,0.000513595,2.0
77.605,0.000513726,2.0
78.115,0.000513933,2.0
78.605,0.000514128,2.0
79.085,0.000514049,2.0
79.585,0.000514325,2.0
80.055,0.000514334,2.0
80.545,0.000514721,2.0
81.005,0.00051491,2.0
81.475,0.000514908,2.0
81.955,0.000514915,2.0
82.415,0.0005153,2.0
82.865,0.000515482,2.0
83.305,0.000515534,2.0
83.755,0.000515504,2.0
84.255,0.000515881,2.0
84.775,0.000515955,2.0
85.305,0.000516114,2.0
85.835,0.000516452,2.0
86.335,0.000516467,2.0
86.845,0.000516964,2.0
87.415,0.000516707,2.0
87.895,0.00051703,2.0
88.395,0.000517198,2.0
88.885,0.000517327,2.0
89.365,0.000517179,2.0
89.865,0.000517536,2.0
90.355,0.000517626,2.0
90.874,0.000517726,2.0
91.374,0.00051815,2.0
91.854,0.000518155,2.0
92.364,0.000518396,2.0
92.854,0.000518713,2.0
93.364,0.000518829,2.0
93.864,0.000518872,2.0
94.354,0.000519093,2.0
94.854,0.000519093,2.0
95.324,0.000519127,2.0
95.834,0.000519594,2.0
96.334,0.00051963,2.0
96.854,0.000519736,2.0
97.354,0.000519953,2.0
97.884,0.000520265,2.0
98.384,0.000520076,2.0
98.914,0.000520257,2.0
99.444,0.000520438,2.0
99.954,0.000520759,2.0
100.464,0.000520827,2.0
100.954,0.000521016,2.0
101.454,0.000521286,2.0
101.944,0.000521301,2.0
102.444,0.000521183,2.0
102.964,0.000521567,2.0
103.484,0.000521829,2.0
103.994,0.000521955,2.0
104.514,0.000522102,2.0
105.034,0.000522459,2.0
105.554,0.000522573,2.0
106.074,0.000522715,2.0
106.594,0.000522726,2.0
107.113,0.000522735,2.0
107.673,0.000522904,2.0
108.193,0.000523007,2.0
108.713,0.000522944,2.0
109.213,0.000523165,2.0
109.733,0.000523353,2.0
110.233,0.000523503,2.0
110.713,0.000523247,2.0
111.213,0.000523565,2.0
111.733,0.00052366,2.0
112.203,0.000524055,2.0
112.693,0.000523708,2.0
113.203,0.000523652,2.0
113.723,0.000523922,2.0
114.213,0.000523574,2.0
114.733,0.000523908,2.0
115.263,0.000523984,2.0
115.773,0.000524008,2.0
116.293,0.000524296,2.0
116.783,0.000523907,2.0
117.273,0.000524089,2.0
117.793,0.000524123,2.0
118.323,0.000524226,2.0
118.843,0.000524578,2.0
119.333,0.00052426,2.0
119.863,0.000524604,2.0
120.403,0.00052472,2.0
120.963,0.000525107,2.0
121.503,0.000525072,2.0
122.023,0.000524944,2.0
122.543,0.000525026,2.0
123.113,0.000525219,2.0
123.632,0.00052551,2.0
124.152,0.000525569,2.0
124.682,0.000525461,2.0
125.222,0.000525728,2.0
125.762,0.000525633,2.0
126.282,0.000525821,2.0
126.792,0.000525807,2.0
127.332,0.000526063,2.0
127.872,0.000525963,2.0
128.392,0.000526193,2.0
128.932,0.000526286,2.0
129.462,0.000526407,2.0
129.982,0.000526273,2.0
130.522,0.000526396,2.0
131.012,0.000526676,2.0
131.502,0.000526831,2.0
132.032,0.000526966,2.0
132.522,0.000526822,2.0
133.032,0.000527002,2.0
133.552,0.000526974,2.0
134.132,0.000527019,2.0
134.672,0.000527352,2.0
135.202,0.000527403,2.0
135.742,0.00052749,2.0
136.292,0.000527621,2.0
136.822,0.000527827,2.0
137.382,0.000527761,2.0
137.942,0.000527552,2.0
138.522,0.000527583,2.0
139.062,0.000527762,2.0
139.602,0.000527732,2.0
140.141,0.000527952,2.0
140.651,0.000527908,2.0
141.171,0.00052828,2.0
141.701,0.000528219,2.0
142.231,0.000528162,2.0
142.811,0.000528284,2.0
143.321,0.00052847,2.0
143.871,0.000528343,2.0
144.421,0.000528545,2.0
144.951,0.000528617,2.0
145.511,0.000528998,2.0
146.051,0.000528889,2.0
146.571,0.000529001,2.0
147.121,0.000529166,2.0
147.651,0.000529357,2.0
148.161,0.000529283,2.0
148.701,0.000529362,2.0
149.221,0.000529264,2.0
149.761,0.000529402,2.0
150.271,0.000529461,2.0
150.791,0.000529417,2.0
151.321,0.000529672,2.0
151.851,0.000529938,2.0
152.351,0.000530044,2.0
152.871,0.000530016,2.0
153.391,0.000529994,2.0
153.961,0.000529941,2.0
154.481,0.000530027,2.0
155.021,0.000530096,2.0
155.501,0.00053028,2.0
156.021,0.000530024,2.0
156.540,0.000530237,2.0
157.090,0.000530285,2.0
157.610,0.00053049,2.0
158.130,0.000530388,2.0
158.670,0.000530333,2.0
159.210,0.000530388,2.0
159.720,0.000530469,2.0
160.240,0.000530149,2.0
160.770,0.000530488,2.0
161.290,0.000530494,2.0
161.800,0.000530617,2.0
162.320,0.000530777,2.0
162.850,0.000530593,2.0
163.380,0.000530574,2.0
163.890,0.000530638,2.0
164.420,0.000531169,2.0
164.940,0.000531141,2.0
165.490,0.000530901,2.0
166.030,0.000531175,2.0
166.550,0.000531228,2.0
167.070,0.00053133,2.0
167.620,0.000531548,2.0
168.140,0.000531281,2.0
168.690,0.000531503,2.0
169.270,0.000531335,2.0
169.790,0.000531238,2.0
170.330,0.000531502,2.0
170.860,0.000531428,2.0
171.420,0.000531476,2.0
171.940,0.00053148,2.0
172.480,0.000531588,2.0
173.009,0.000531812,2.0
173.539,0.000531906,2.0
174.079,0.00053159,2.0
174.609,0.000531837,2.0
175.139,0.00053184,2.0
175.669,0.000531783,2.0
176.219,0.000531685,2.0
176.769,0.000531963,2.0
177.299,0.000532033,2.0
177.839,0.000531877,2.0
178.369,0.000532173,2.0
178.909,0.000532199,2.0
179.459,0.000532274,2.0
179.999,0.000532246,2.0
180.519,0.000532216,2.0
181.079,0.000532256,2.0
181.589,0.000532016,2.0
182.119,0.000532228,2.0
182.599,0.000532118,2.0
183.069,0.000532201,2.0
183.559,0.000532523,2.0
184.039,0.000532442,2.0
184.559,0.0005326,2.0
185.079,0.0005326,2.0
185.569,0.000532699,2.0
186.059,0.00053246,2.0
186.549,0.000532659,2.0
187.039,0.000532862,2.0
187.539,0.000532834,2.0
188.019,0.000532641,2.0
188.509,0.000532773,2.0
189.009,0.000532675,2.0
189.508,0.000532731,2.0
189.988,0.00053298,2.0
190.468,0.000532746,2.0
190.958,0.000532851,2.0
191.448,0.000533136,2.0
191.938,0.000533159,2.0
192.438,0.000533061,2.0
192.948,0.000533197,2.0
193.438,0.000533233,2.0
193.918,0.000533187,2.0
194.398,0.000533096,2.0
194.898,0.000533291,2.0
195.368,0.000532982,2.0
195.838,0.00053305,2.0
196.348,0.000532968,2.0
196.828,0.000533077,2.0
197.318,0.000533289,2.0
197.798,0.000533426,2.0
198.308,0.000533249,2.0
198.808,0.000533451,2.0
199.318,0.000533406,2.0
199.858,0.000533304,2.0
200.358,0.000533402,2.0
200.878,0.00053342,2.0
201.388,0.000533403,2.0
201.918,0.000533501,2.0
202.408,0.000533444,2.0
202.898,0.00053357,2.0
203.388,0.000533532,2.0
203.898,0.0005339,2.0
204.398,0.000533931,2.0
204.888,0.000533862,2.0
205.378,0.000533872,2.0
205.887,0.000533729,2.0
206.387,0.000533757,2.0
206.887,0.000533812,2.0
207.387,0.000533708,2.0
207.897,0.000534117,2.0
208.387,0.000533581,2.0
208.867,0.000533725,2.0
209.367,0.000533853,2.0
209.867,0.000533805,2.0
210.357,0.000534071,2.0
210.857,0.000533978,2.0
211.377,0.000533907,2.0
211.877,0.000534009,2.0
212.387,0.000534112,2.0
212.887,0.000533854,2.0
213.397,0.000533789,2.0
213.897,0.000533899,2.0
214.387,0.000533936,2.0
214.917,0.000533999,2.0
215.407,0.000533955,2.0
215.887,0.000534053,2.0
216.367,0.000533785,2.0
216.867,0.000533922,2.0
217.367,0.000534133,2.0
217.867,0.000534177,2.0
218.367,0.000534494,2.0
218.847,0.000534474,2.0
219.347,0.000534348,2.0
219.847,0.000534487,2.0
220.357,0.000534378,2.0
220.847,0.000534323,2.0
221.347,0.000534433,2.0
221.847,0.0005343,2.0
222.337,0.000534178,2.0
222.836,0.000534494,2.0
223.336,0.000534669,2.0
223.856,0.000534418,2.0
224.376,0.000534151,2.0
224.866,0.00053408,2.0
225.376,0.000534286,2.0
225.886,0.000534165,2.0
226.376,0.000533974,2.0
226.886,0.000533824,2.0
227.396,0.000533746,2.0
227.896,0.000533674,2.0
228.386,0.000533526,2.0
228.886,0.000533007,2.0
229.396,0.000532602,2.0
229.896,0.000532166,2.0
230.446,0.000531456,2.0
230.946,0.000531394,2.0
231.436,0.000530826,2.0
231.946,0.000529925,2.0
232.456,0.000529884,2.0
232.946,0.000529536,2.0
233.446,0.000528669,2.0
233.966,0.000528177,2.0
234.456,0.000528246,2.0
234.956,0.000528251,2.0
235.456,0.00052775,2.0
235.956,0.00052723,2.0
236.446,0.000527176,2.0
236.946,0.000527161,2.0
237.466,0.000526811,2.0
237.966,0.000526696,2.0
238.456,0.000526783,2.0
238.985,0.000526474,2.0
239.805,0.000526053,2.0
240.515,0.000526166,2.0
241.175,0.000525966,2.0
241.745,0.000526113,2.0
242.335,0.000526129,2.0
242.915,0.000525783,2.0
243.445,0.000525819,2.0
243.945,0.000525525,2.0
244.455,0.000525646,2.0
244.975,0.000525451,2.0
245.505,0.000525326,2.0
245.985,0.000525374,2.0
246.495,0.000525346,2.0
246.995,0.000525224,2.0
247.505,0.000525385,2.0
248.015,0.000525144,2.0
248.535,0.000525074,2.0
249.015,0.000524898,2.0
249.515,0.000524667,2.0
250.015,0.000524613,2.0
250.545,0.000524813,2.0
251.065,0.000524245,2.0
251.585,0.000524327,2.0
252.065,0.000524323,2.0
252.575,0.000524118,2.0
253.085,0.000524116,2.0
253.585,0.000524216,2.0
254.095,0.000524051,2.0
254.605,0.000523847,2.0
255.125,0.000523827,2.0
255.644,0.000523564,2.0
256.144,0.000523707,2.0
256.684,0.000523754,2.0
257.164,0.000523723,2.0
257.654,0.000523309,2.0
258.164,0.000523264,2.0
258.664,0.000523298,2.0
259.164,0.000523338,2.0
259.694,0.000523282,2.0
260.194,0.000523382,2.0
260.754,0.000523225,2.0
261.274,0.000522915,2.0
261.794,0.000522896,2.0
262.284,0.000523075,2.0
262.764,0.000522987,2.0
263.294,0.000522865,2.0
263.824,0.000522805,2.0
264.334,0.000522752,2.0
264.854,0.000523012,2.0
265.354,0.000522774,2.0
265.864,0.000522734,2.0
266.374,0.000522771,2.0
266.894,0.00052265,2.0
267.394,0.000522574,2.0
267.884,0.000522294,2.0
268.394,0.000522135,2.0
268.914,0.000522231,2.0
269.414,0.000522293,2.0
269.924,0.000522306,2.0
270.424,0.000522389,2.0
270.954,0.000522125,2.0
271.474,0.000522006,2.0
271.983,0.000522043,2.0
272.493,0.000521989,2.0
273.003,0.000521799,2.0
273.533,0.000522048,2.0
274.023,0.000521859,2.0
274.543,0.000521837,2.0
275.103,0.000521989,2.0
275.623,0.000521699,2.0
276.163,0.000521815,2.0
276.683,0.000521848,2.0
277.213,0.000521809,2.0
277.733,0.000521589,2.0
278.253,0.000521456,2.0
278.763,0.000521554,2.0
279.273,0.000521234,2.0
279.783,0.000521272,2.0
280.293,0.000521294,2.0
280.783,0.00052135,2.0
281.293,0.000521269,2.0
281.793,0.0005212,2.0
282.313,0.000521281,2.0
282.813,0.00052104,2.0
283.313,0.000521326,2.0
283.813,0.000520917,2.0
284.303,0.000520921,2.0
284.833,0.000520759,2.0
285.413,0.000520659,2.0
286.023,0.000520756,2.0
286.593,0.000520806,2.0
287.123,0.00052076,2.0
287.663,0.000520812,2.0
288.212,0.000520664,2.0
288.742,0.000520439,2.0
289.272,0.000520456,2.0
289.792,0.000520448,2.0
290.312,0.000520432,2.0
290.842,0.000520279,2.0
291.412,0.000520457,2.0
291.962,0.000520395,2.0
292.502,0.00052047,2.0
293.002,0.000520551,2.0
293.532,0.000520748,2.0
294.082,0.000520387,2.0
294.622,0.000520642,2.0
295.142,0.000520126,2.0
295.662,0.000520222,2.0
296.182,0.000520431,2.0
296.712,0.000520219,2.0
297.242,0.000520139,2.0
297.762,0.000520413,2.0
298.292,0.000520231,2.0
298.842,0.000520179,2.0
299.362,0.000520282,2.0
299.892,0.000520134,2.0
300.432,0.000520048,2.0
300.962,0.000520166,2.0
301.492,0.000520262,2.0
302.022,0.000520422,2.0
302.562,0.000519801,2.0
303.072,0.000519966,2.0
303.602,0.000520145,2.0
304.142,0.000520152,2.0
304.651,0.000520231,2.0
305.201,0.000520011,2.0
305.741,0.000519714,2.0
306.251,0.000519924,2.0
306.811,0.000519614,2.0
307.301,0.00051946,2.0
307.811,0.000519546,2.0
308.351,0.000519234,2.0
308.851,0.00051921,2.0
309.351,0.000519453,2.0
309.881,0.000519409,2.0
310.381,0.000519311,2.0
310.891,0.000519286,2.0
311.411,0.000518967,2.0
311.931,0.000519059,2.0
312.431,0.000519018,2.0
312.941,0.000518982,2.0
313.501,0.000518848,2.0
314.031,0.000518823,2.0
314.581,0.000518724,2.0
315.091,0.000519117,2.0
315.611,0.000518881,2.0
316.121,0.00051888,2.0
316.651,0.000518862,2.0
317.171,0.000518781,2.0
317.681,0.000518399,2.0
318.201,0.000518848,2.0
318.721,0.000518928,2.0
319.271,0.000518566,2.0
319.811,0.000518653,2.0
320.341,0.000518805,2.0
320.891,0.000518394,2.0
321.430,0.000518444,2.0
322.000,0.000518341,2.0
322.530,0.000518461,2.0
323.070,0.000518569,2.0
323.610,0.000518588,2.0
324.140,0.000518755,2.0
324.680,0.00051864,2.0
325.190,0.000518612,2.0
325.690,0.000518712,2.0
326.210,0.000518647,2.0
326.750,0.00051878,2.0
327.280,0.000518978,2.0
327.830,0.000518866,2.0
328.370,0.000518547,2.0
328.890,0.000518486,2.0
329.410,0.000518504,2.0
329.950,0.000518341,2.0
330.510,0.000518519,2.0
331.050,0.000518304,2.0
331.590,0.000518298,2.0
332.140,0.000518329,2.0
332.680,0.000518594,2.0
333.200,0.000518199,2.0
333.730,0.000517993,2.0
334.270,0.000518116,2.0
334.800,0.00051827,2.0
335.370,0.000518171,2.0
335.940,0.000517867,2.0
336.460,0.000517844,2.0
336.980,0.000517825,2.0
337.569,0.000517758,2.0
338.119,0.000517882,2.0
338.659,0.000517724,2.0
339.189,0.000517943,2.0
339.759,0.000517805,2.0
340.339,0.000517666,2.0
340.889,0.000517555,2.0
341.449,0.000517595,2.0
342.009,0.000517669,2.0
342.539,0.000517651,2.0
343.049,0.000517683,2.0
343.599,0.000517708,2.0
344.159,0.000517836,2.0
344.699,0.000517969,2.0
345.229,0.000517807,2.0
345.779,0.000517726,2.0
346.319,0.000517608,2.0
346.879,0.000517787,2.0
347.429,0.000517901,2.0
347.969,0.000517977,2.0
348.509,0.00051801,2.0
349.069,0.000518087,2.0
349.619,0.000517861,2.0
350.169,0.000517741,2.0
350.709,0.000517923,2.0
351.249,0.000517673,2.0
351.769,0.0005176,2.0
352.299,0.000517715,2.0
352.889,0.000517275,2.0
353.429,0.000517024,2.0
353.988,0.000517155,2.0
354.538,0.00051722,2.0
355.088,0.000517439,2.0
355.648,0.00051698,2.0
356.208,0.000516899,2.0
356.748,0.000517125,2.0
357.298,0.000516858,2.0
357.858,0.000517094,2.0
358.418,0.000516971,2.0
358.948,0.000517131,2.0
359.508,0.000516949,2.0
360.078,0.00051693,2.0
360.638,0.000517168,2.0
361.178,0.000517226,2.0
361.718,0.000517428,2.0
362.258,0.000517334,2.0
362.808,0.00051739,2.0
363.368,0.000517102,2.0
363.928,0.000517234,2.0
364.418,0.000517282,2.0
364.898,0.000517163,2.0
365.408,0.000517141,2.0
365.888,0.000517104,2.0
366.388,0.000517207,2.0
366.928,0.000517117,2.0
367.498,0.000517358,2.0
368.068,0.000517306,2.0
368.558,0.000517021,2.0
369.048,0.00051713,2.0
369.568,0.000516913,2.0
370.108,0.000516953,2.0
370.597,0.000516869,2.0
371.087,0.000516901,2.0
371.597,0.000516831,2.0
372.097,0.000516973,2.0
372.597,0.00051711,2.0
373.097,0.000517256,2.0
373.587,0.000516942,2.0
374.067,0.000516816,2.0
374.577,0.000516846,2.0
375.057,0.000516818,2.0
375.557,0.000516903,2.0
376.067,0.000516527,2.0
376.567,0.000516562,2.0
377.057,0.000516571,2.0
377.587,0.000516841,2.0
378.067,0.000516431,2.0
378.567,0.000516753,2.0
379.067,0.000516624,2.0
379.577,0.000516461,2.0
380.057,0.000516392,2.0
380.567,0.000516402,2.0
381.067,0.000516385,2.0
381.567,0.000516468,2.0
382.067,0.000516623,2.0
382.557,0.000516535,2.0
383.107,0.00051656,2.0
383.607,0.000516256,2.0
384.147,0.000516173,2.0
384.747,0.000516462,2.0
385.277,0.000516517,2.0
385.777,0.000516416,2.0
386.267,0.000516231,2.0
386.767,0.000516326,2.0
387.286,0.000515804,2.0
387.776,0.000516328,2.0
388.266,0.000516491,2.0
388.796,0.000516388,2.0
389.306,0.000516278,2.0
389.816,0.000516338,2.0
390.336,0.000516496,2.0
390.826,0.000516564,2.0
391.336,0.000516434,2.0
391.836,0.000516335,2.0
392.336,0.000516728,2.0
392.856,0.000516452,2.0
393.356,0.000516696,2.0
393.876,0.000516242,2.0
394.366,0.000516307,2.0
394.876,0.000516336,2.0
395.376,0.000516369,2.0
395.886,0.000516446,2.0
396.416,0.00051639,2.0
396.926,0.000516368,2.0
397.426,0.000516496,2.0
397.936,0.000516462,2.0
398.466,0.000516336,2.0
398.966,0.000516347,2.0
399.486,0.000516533,2.0
399.996,0.00051638,2.0
400.506,0.000516468,2.0
401.006,0.000516236,2.0
401.516,0.000516393,2.0
402.026,0.000516374,2.0
402.566,0.00051659,2.0
403.076,0.000516589,2.0
403.595,0.000516664,2.0
404.105,0.000516387,2.0
404.635,0.000516672,2.0
405.155,0.000516531,2.0
405.655,0.000516497,2.0
406.165,0.000516593,2.0
406.685,0.000516674,2.0
407.195,0.000516316,2.0
407.685,0.000516275,2.0
408.195,0.000516419,2.0
408.715,0.000516572,2.0
409.225,0.000516522,2.0
409.725,0.000516624,2.0
410.225,0.000516685,2.0
410.715,0.00051636,2.0
411.215,0.000516243,2.0
411.715,0.000516584,2.0
412.205,0.000516257,2.0
412.725,0.000516272,2.0
413.245,0.000516319,2.0
413.795,0.000516771,2.0
414.315,0.000516323,2.0
414.845,0.000516566,2.0
415.365,0.000516459,2.0
415.875,0.000516336,2.0
416.405,0.000516553,2.0
416.885,0.000516411,2.0
417.355,0.000516276,2.0
417.875,0.000516428,2.0
418.395,0.000516338,2.0
418.895,0.000516207,2.0
419.395,0.000516037,2.0
419.884,0.000516422,2.0
420.394,0.00051616,2.0
420.914,0.000516415,2.0
421.424,0.000516257,2.0
421.904,0.000516033,2.0
422.404,0.000516247,2.0
422.914,0.000515859,2.0
423.434,0.000515977,2.0
423.934,0.000515707,2.0
424.454,0.000515906,2.0
424.964,0.000515753,2.0
425.464,0.000515747,2.0
425.964,0.000515722,2.0
426.464,0.000515804,2.0
426.974,0.000515846,2.0
427.474,0.000515977,2.0
427.964,0.000516222,2.0
428.464,0.0005162,2.0
429.024,0.000516016,2.0
429.524,0.000516112,2.0
430.044,0.000516117,2.0
430.574,0.00051635,2.0
431.074,0.000516567,2.0
431.594,0.000516676,2.0
432.094,0.000516709,2.0
432.574,0.000516752,2.0
433.074,0.000517026,2.0
433.604,0.00051705,2.0
434.104,0.000517075,2.0
434.614,0.000517229,2.0
435.124,0.000517347,2.0
435.614,0.000517465,2.0
436.104,0.000517737,2.0
436.623,0.000517807,2.0
437.153,0.00051807,2.0
437.653,0.000518037,2.0
438.153,0.000518209,2.0
438.663,0.000518261,2.0
439.173,0.000518696,2.0
439.673,0.000518423,2.0
440.193,0.000518606,2.0
440.683,0.000518788,2.0
441.213,0.00051868,2.0
441.703,0.000518793,2.0
442.183,0.000519099,2.0
442.683,0.000519278,2.0
443.183,0.00051948,2.0
443.703,0.00051933,2.0
444.223,0.000519625,2.0
444.693,0.000519674,2.0
445.223,0.000520045,2.0
445.743,0.000520105,2.0
446.243,0.000520021,2.0
446.703,0.000520365,2.0
447.203,0.000520492,2.0
447.703,0.000520503,2.0
448.223,0.000520817,2.0
448.743,0.000521322,2.0
449.233,0.000521295,2.0
449.763,0.000521908,2.0
450.263,0.000521585,2.0
450.773,0.000522071,2.0
451.283,0.000522127,2.0
451.783,0.000522398,2.0
452.293,0.000522531,2.0
452.792,0.00052287,2.0
453.322,0.00052315,2.0
453.812,0.000523356,2.0
454.312,0.000523419,2.0
454.822,0.000523354,2.0
455.342,0.000523536,2.0
455.842,0.00052384,2.0
456.342,0.000523939,2.0
456.852,0.000524133,2.0
457.362,0.000524542,2.0
457.872,0.000524526,2.0
458.382,0.000524627,2.0
458.902,0.000524766,2.0
459.462,0.000525316,2.0
459.942,0.000525368,2.0
460.452,0.000525758,2.0
460.972,0.000525764,2.0
461.462,0.000525996,2.0
461.952,0.000525885,2.0
462.442,0.000526083,2.0
462.962,0.000525981,2.0
463.462,0.00052608,2.0
463.962,0.000526265,2.0
464.472,0.000526344,2.0
464.982,0.000526309,2.0
465.482,0.000526559,2.0
465.992,0.000526855,2.0
466.492,0.000526854,2.0
467.002,0.000526841,2.0
467.502,0.000526966,2.0
468.002,0.000527147,2.0
468.512,0.000527022,2.0
469.021,0.000527022,2.0
469.521,0.000527346,2.0
470.021,0.000527632,2.0
470.521,0.000527364,2.0
471.031,0.000527607,2.0
471.531,0.00052753,2.0
472.041,0.000528022,2.0
472.571,0.000528013,2.0
473.081,0.000528053,2.0
473.611,0.000528272,2.0
474.131,0.000528017,2.0
474.681,0.000528049,2.0
475.211,0.000528021,2.0
475.721,0.000528532,2.0
476.211,0.000528131,2.0
476.741,0.000528281,2.0
477.281,0.000528455,2.0
477.811,0.000528786,2.0
478.351,0.000528939,2.0
478.861,0.000528979,2.0
479.371,0.000529138,2.0
479.881,0.000529543,2.0
480.381,0.000529727,2.0
480.921,0.00052963,2.0
481.431,0.00052977,2.0
481.951,0.000529816,2.0
482.461,0.000529752,2.0
482.991,0.000529867,2.0
483.511,0.00053007,2.0
484.041,0.000529941,2.0
484.551,0.000530003,2.0
485.071,0.00053015,2.0
485.590,0.000530156,2.0
486.110,0.000530068,2.0
486.630,0.0005301,2.0
487.170,0.000530208,2.0
487.700,0.000530283,2.0
488.220,0.000530231,2.0
488.740,0.000530405,2.0
489.270,0.000530509,2.0
489.840,0.000530492,2.0
490.370,0.00053045,2.0
490.900,0.000530685,2.0
491.420,0.000530761,2.0
491.980,0.000530924,2.0
492.510,0.000531075,2.0
493.040,0.0005309,2.0
493.570,0.0005311,2.0
494.070,0.000530877,2.0
494.570,0.000530893,2.0
495.110,0.00053095,2.0
495.610,0.000531129,2.0
496.100,0.00053089,2.0
496.620,0.000531285,2.0
497.110,0.000531404,2.0
497.610,0.000531511,2.0
498.130,0.000531424,2.0
498.640,0.000531611,2.0
499.160,0.000531583,2.0
499.690,0.000531504,2.0
500.170,0.000531728,2.0
500.690,0.000531539,2.0
501.210,0.000531805,2.0
501.740,0.000531626,2.0
502.229,0.000531973,2.0
502.719,0.000531778,2.0
503.249,0.000532051,2.0
503.759,0.000532227,2.0
504.279,0.000532073,2.0
504.809,0.000532151,2.0
505.359,0.000532299,2.0
505.869,0.000532147,2.0
506.379,0.000532041,2.0
506.919,0.000531989,2.0
507.439,0.000531995,2.0
507.979,0.000532006,2.0
508.549,0.000532174,2.0
509.079,0.000532355,2.0
509.619,0.000531957,2.0
510.159,0.000532128,2.0
510.689,0.000532031,2.0
511.229,0.000532231,2.0
511.769,0.000532359,2.0
512.299,0.000532291,2.0
512.819,0.000532368,2.0
513.339,0.000532254,2.0
513.859,0.000532089,2.0
514.379,0.000532279,2.0
514.899,0.000532453,2.0
515.419,0.000532465,2.0
515.959,0.000532482,2.0
516.489,0.00053244,2.0
517.009,0.000532318,2.0
517.529,0.000532583,2.0
518.059,0.000532302,2.0
518.578,0.00053264,2.0
519.108,0.000532585,2.0
519.618,0.0005326,2.0
520.138,0.000532831,2.0
520.708,0.000532675,2.0
521.238,0.000532745,2.0
521.768,0.000532382,2.0
522.288,0.000532756,2.0
522.798,0.000532892,2.0
523.318,0.000532975,2.0
523.838,0.000532995,2.0
524.368,0.000533159,2.0
524.908,0.000533082,2.0
525.418,0.000532899,2.0
525.948,0.000533148,2.0
526.458,0.000533355,2.0
526.988,0.00053336,2.0
527.518,0.000533361,2.0
528.048,0.000533196,2.0
528.568,0.000533403,2.0
529.108,0.000533303,2.0
529.648,0.000533329,2.0
530.168,0.000533315,2.0
530.708,0.000533212,2.0
531.218,0.000533502,2.0
531.748,0.000533206,2.0
532.268,0.000533478,2.0
532.808,0.00053313,2.0
533.348,0.000533292,2.0
533.878,0.000533397,2.0
534.408,0.000533474,2.0
534.937,0.000533276,2.0
535.437,0.000533379,2.0
535.987,0.000533463,2.0
536.487,0.000532981,2.0
536.997,0.000533139,2.0
537.547,0.000533329,2.0
538.087,0.000533037,2.0
538.607,0.000533278,2.0
539.137,0.000533308,2.0
539.697,0.000533397,2.0
540.237,0.000533465,2.0
540.747,0.000533448,2.0
541.277,0.00053322,2.0
541.837,0.00053334,2.0
542.357,0.000533234,2.0
542.887,0.000533209,2.0
543.417,0.000533141,2.0
543.937,0.000533263,2.0
544.467,0.000533445,2.0
544.987,0.000533488,2.0
545.507,0.0005336,2.0
546.027,0.000533395,2.0
546.557,0.000533404,2.0
547.067,0.000533655,2.0
547.577,0.000533632,2.0
548.097,0.000533553,2.0
548.627,0.000533652,2.0
549.147,0.000533558,2.0
549.677,0.000533602,2.0
550.197,0.000533662,2.0
550.737,0.000533547,2.0
551.316,0.000533404,2.0
551.826,0.000533645,2.0
552.326,0.000533544,2.0
552.846,0.000533602,2.0
553.356,0.000533458,2.0
553.876,0.000533376,2.0
554.396,0.000533322,2.0
554.926,0.000533445,2.0
555.426,0.00053363,2.0
555.966,0.000533328,2.0
556.486,0.000533527,2.0
557.026,0.000533378,2.0
557.536,0.000533447,2.0
558.056,0.000533224,2.0
558.596,0.000533482,2.0
559.126,0.000533314,2.0
559.646,0.00053351,2.0
560.186,0.00053346,2.0
560.716,0.000533506,2.0
561.236,0.000533584,2.0
561.746,0.000533288,2.0
562.276,0.000533335,2.0
562.826,0.00053328,2.0
563.346,0.000533524,2.0
563.886,0.000533653,2.0
564.406,0.000533304,2.0
564.926,0.000533655,2.0
565.456,0.000533429,2.0
565.986,0.000533415,2.0
566.556,0.000533509,2.0
567.106,0.000533651,2.0
567.616,0.000533662,2.0
568.155,0.000533689,2.0
568.675,0.000533522,2.0
569.205,0.000533724,2.0
569.765,0.000533561,2.0
570.275,0.000533442,2.0
570.795,0.000533234,2.0
571.325,0.000533174,2.0
571.835,0.000533288,2.0
572.375,0.000533508,2.0
572.935,0.000533456,2.0
573.485,0.000533383,2.0
574.035,0.000533263,2.0
574.595,0.000533419,2.0
575.135,0.000533255,2.0
575.675,0.000533092,2.0
576.245,0.000533046,2.0
576.795,0.000533016,2.0
577.315,0.000533128,2.0
577.845,0.000533195,2.0
578.375,0.000533073,2.0
578.915,0.000533252,2.0
579.485,0.000533522,2.0
580.045,0.000533618,2.0
580.605,0.00053339,2.0
581.145,0.000533617,2.0
581.735,0.0005334,2.0
582.275,0.000533299,2.0
582.805,0.000533295,2.0
583.355,0.000533388,2.0
583.895,0.000533367,2.0
584.424,0.00053331,2.0
584.934,0.000533201,2.0
585.464,0.000532992,2.0
586.044,0.00053329,2.0
586.584,0.000533106,2.0
587.114,0.000533128,2.0
587.654,0.000533211,2.0
588.204,0.000533036,2.0
588.754,0.000533006,2.0
589.304,0.000532937,2.0
589.854,0.000532924,2.0
590.394,0.000533233,2.0
590.924,0.000533209,2.0
591.454,0.000533265,2.0
592.004,0.000533339,2.0
592.544,0.000533384,2.0
593.084,0.000533291,2.0
593.634,0.000533239,2.0
594.154,0.0005331,2.0
594.664,0.000532923,2.0
595.214,0.000533208,2.0
595.774,0.000533248,2.0
596.324,0.000533003,2.0
596.914,0.000532906,2.0
597.494,0.000533289,2.0
598.044,0.000532838,2.0
598.604,0.000532839,2.0
599.134,0.000532866,2.0
599.674,0.000532658,2.0
600.204,0.000532536,2.0
600.753,0.000532745,2.0
601.273,0.000532814,2.0
601.793,0.000532681,2.0
602.343,0.000532827,2.0
602.893,0.000532817,2.0
603.423,0.000532789,2.0
603.953,0.00053286,2.0
604.493,0.000532922,2.0
605.043,0.000533012,2.0
605.563,0.000533144,2.0
606.103,0.000532938,2.0
606.653,0.000532961,2.0
607.193,0.000533202,2.0
607.743,0.000532898,2.0
608.293,0.000532922,2.0
608.843,0.000533003,2.0
609.383,0.000532914,2.0
609.913,0.000532961,2.0
610.433,0.000532881,2.0
611.063,0.000532972,2.0
611.743,0.000532827,2.0
612.313,0.000533144,2.0
612.873,0.000532976,2.0
613.413,0.000533394,2.0
613.953,0.000533119,2.0
614.533,0.00053328,2.0
615.063,0.000533105,2.0
615.593,0.000533217,2.0
616.123,0.000533305,2.0
616.653,0.00053327,2.0
617.212,0.000533196,2.0
617.742,0.000533323,2.0
618.302,0.000533392,2.0
618.852,0.000533464,2.0
619.392,0.000533341,2.0
619.942,0.000533444,2.0
620.492,0.000533328,2.0
621.042,0.000528522,2.0
621.582,0.000506699,2.0
622.132,0.000494571,2.0
622.662,0.000486321,2.0
623.172,0.000480241,2.0
623.672,0.000475179,2.0
624.202,0.000470653,2.0
624.742,0.000466938,2.0
625.272,0.0004638,2.0
625.842,0.000460877,2.0
626.392,0.000458384,2.0
626.922,0.000456289,2.0
627.512,0.000454138,2.0
628.062,0.000452311,2.0
628.592,0.000450696,2.0
629.112,0.0004495,2.0
629.652,0.000447882,2.0
630.182,0.000446633,2.0
630.742,0.000445518,2.0
631.282,0.000444491,2.0
631.812,0.000443597,2.0
632.342,0.000442724,2.0
632.882,0.000441869,2.0
633.422,0.000440999,2.0
633.931,0.000440408,2.0
634.461,0.000439671,2.0
634.981,0.00043914,2.0
635.521,0.000438755,2.0
636.071,0.000437975,2.0
636.601,0.000437475,2.0
637.141,0.000437034,2.0
637.691,0.000436571,2.0
638.211,0.000436256,2.0
638.781,0.000435535,2.0
639.321,0.00043517,2.0
639.861,0.000434808,2.0
640.411,0.00043449,2.0
641.001,0.000434024,2.0
641.551,0.000433978,2.0
642.111,0.000433592,2.0
642.681,0.00043327,2.0
643.221,0.000433192,2.0
643.741,0.000432658,2.0
644.291,0.000432557,2.0
644.871,0.000432307,2.0
645.411,0.000432163,2.0
645.951,0.000431957,2.0
646.501,0.000431778,2.0
647.031,0.000431597,2.0
647.571,0.000431327,2.0
648.111,0.000431145,2.0
648.661,0.000431077,2.0
649.191,0.000430965,2.0
649.731,0.000430731,2.0
650.280,0.000430638,2.0
650.790,0.000430516,2.0
651.310,0.00043038,2.0
651.850,0.000430242,2.0
652.380,0.000430182,2.0
652.910,0.000430183,2.0
653.430,0.000430192,2.0
653.960,0.00043016,2.0
654.500,0.000429785,2.0
655.050,0.000429776,2.0
655.580,0.000429621,2.0
656.130,0.000429456,2.0
656.680,0.000429342,2.0
657.220,0.000429174,2.0
657.790,0.000429095,2.0
658.330,0.000429162,2.0
658.890,0.000428957,2.0
659.440,0.000428994,2.0
659.960,0.000428858,2.0
660.480,0.000428958,2.0
661.040,0.000428679,2.0
661.600,0.000428814,2.0
662.150,0.000428675,2.0
662.710,0.000428658,2.0
663.260,0.000428528,2.0
663.830,0.000428458,2.0
664.380,0.000428503,2.0
664.920,0.000428338,2.0
665.460,0.000428349,2.0
666.000,0.000428337,2.0
666.540,0.000428331,2.0
667.069,0.000428245,2.0
667.629,0.000428251,2.0
668.169,0.000428202,2.0
668.709,0.000428128,2.0
669.269,0.000427924,2.0
669.819,0.000428038,2.0
670.369,0.000428226,2.0
670.939,0.000428228,2.0
671.499,0.000428107,2.0
672.059,0.000428207,2.0
672.619,0.000428051,2.0
673.209,0.000428169,2.0
673.769,0.000428324,2.0
674.299,0.000428104,2.0
674.849,0.000427926,2.0
675.399,0.000428122,2.0
675.949,0.000428302,2.0
676.499,0.000427995,2.0
677.059,0.000428107,2.0
677.599,0.000427966,2.0
678.139,0.000428045,2.0
678.689,0.000428028,2.0
679.239,0.000428085,2.0
679.789,0.00042804,2.0
680.329,0.00042791,2.0
680.869,0.000427939,2.0
681.419,0.000427988,2.0
681.979,0.000427871,2.0
682.519,0.000427796,2.0
683.088,0.000427978,2.0
683.648,0.000428106,2.0
684.228,0.000428001,2.0
684.808,0.000427806,2.0
685.378,0.00042771,2.0
685.918,0.000427939,2.0
686.468,0.000427868,2.0
687.038,0.000427804,2.0
687.618,0.000427818,2.0
688.188,0.000427846,2.0
688.788,0.000427874,2.0
689.368,0.000427769,2.0
689.918,0.000427934,2.0
690.468,0.000428002,2.0
691.008,0.000427914,2.0
691.578,0.000427715,2.0
692.128,0.000427556,2.0
692.778,0.000427532,2.0
693.328,0.000427591,2.0
693.918,0.000427676,2.0
694.478,0.000427564,2.0
695.038,0.000427738,2.0
695.568,0.000427566,2.0
696.098,0.000427598,2.0
696.678,0.000427618,2.0
697.228,0.000427586,2.0
697.808,0.000427589,2.0
698.348,0.000427678,2.0
698.928,0.00042763,2.0
699.487,0.000427574,2.0
700.037,0.000427659,2.0
700.577,0.000427779,2.0
701.147,0.000427604,2.0
701.707,0.000427495,2.0
702.227,0.000427698,2.0
702.737,0.00042756,2.0
703.287,0.000427454,2.0
703.877,0.000427554,2.0
704.457,0.000427505,2.0
705.017,0.000427369,2.0
705.567,0.000427442,2.0
706.137,0.000427541,2.0
706.697,0.000427485,2.0
707.257,0.000427481,2.0
707.817,0.000427262,2.0
708.377,0.000427489,2.0
708.917,0.000427401,2.0
709.457,0.00042756,2.0
710.007,0.0004276,2.0
710.567,0.000427368,2.0
711.127,0.000427355,2.0
711.687,0.000427357,2.0
712.257,0.000427397,2.0
712.817,0.000427095,2.0
713.377,0.000427339,2.0
713.937,0.000427382,2.0
714.507,0.000427414,2.0
715.017,0.000427407,2.0
715.567,0.000427085,2.0
716.136,0.000426985,2.0
716.706,0.000426924,2.0
717.276,0.000427127,2.0
717.836,0.00042715,2.0
718.396,0.000426972,2.0
718.996,0.000427095,2.0
719.556,0.000427039,2.0
720.126,0.000426912,2.0
720.686,0.00042691,2.0
721.206,0.000426804,2.0
721.746,0.000426798,2.0
722.306,0.000426999,2.0
722.866,0.000426917,2.0
723.416,0.000426757,2.0
723.986,0.000426826,2.0
724.546,0.000426755,2.0
725.096,0.00042681,2.0
725.656,0.000426871,2.0
726.226,0.000426816,2.0
726.796,0.000426974,2.0
727.336,0.000426639,2.0
727.816,0.000426641,2.0
728.316,0.000426865,2.0
728.806,0.000426711,2.0
729.326,0.00042675,2.0
729.816,0.000426571,2.0
730.326,0.000426693,2.0
730.826,0.000426642,2.0
731.336,0.000426697,2.0
731.836,0.000426776,2.0
732.325,0.000426818,2.0
732.825,0.000426728,2.0
733.325,0.00042662,2.0
733.835,0.000426749,2.0
734.375,0.000426816,2.0
734.885,0.000426732,2.0
735.395,0.000426809,2.0
735.885,0.000426832,2.0
736.355,0.000426838,2.0
736.845,0.000427028,2.0
737.365,0.000426773,2.0
737.875,0.000426738,2.0
738.375,0.000426804,2.0
738.895,0.000426902,2.0
739.375,0.000427005,2.0
739.895,0.000427002,2.0
740.395,0.000426811,2.0
740.915,0.000426786,2.0
741.425,0.000427004,2.0
741.945,0.000426695,2.0
742.425,0.000426667,2.0
742.915,0.000426747,2.0
743.415,0.000426593,2.0
743.905,0.000426519,2.0
744.395,0.000426745,2.0
744.885,0.000426531,2.0
745.385,0.000426536,2.0
745.895,0.00042665,2.0
746.385,0.00042663,2.0
746.875,0.000426621,2.0
747.375,0.000426602,2.0
747.875,0.000426517,2.0
748.375,0.000426549,2.0
748.884,0.0004265,2.0
749.564,0.000426694,2.0
750.104,0.000426581,2.0
750.604,0.000426664,2.0
751.124,0.00042672,2.0
751.624,0.000426517,2.0
752.144,0.00042644,2.0
752.644,0.000426631,2.0
753.134,0.000426534,2.0
753.654,0.000426396,2.0
754.154,0.000426638,2.0
754.654,0.000426285,2.0
755.164,0.000426495,2.0
755.674,0.000426525,2.0
756.174,0.000426303,2.0
756.694,0.000426502,2.0
757.194,0.00042661,2.0
757.714,0.000426421,2.0
758.224,0.000426593,2.0
758.734,0.000426446,2.0
759.224,0.000426518,2.0
759.754,0.000426756,2.0
760.254,0.000426576,2.0
760.784,0.000426465,2.0
761.304,0.000426656,2.0
761.814,0.000426741,2.0
762.314,0.000426623,2.0
762.814,0.00042655,2.0
763.324,0.000426635,2.0
763.844,0.000426596,2.0
764.364,0.000426759,2.0
764.874,0.000426383,2.0
765.433,0.000426383,2.0
765.913,0.000426602,2.0
766.413,0.000426366,2.0
766.933,0.000426247,2.0
767.443,0.000426286,2.0
767.953,0.000426167,2.0
768.463,0.000426342,2.0
768.973,0.000426196,2.0
769.463,0.000426357,2.0
769.953,0.000426292,2.0
770.463,0.000426284,2.0
770.973,0.000426197,2.0
771.483,0.000425961,2.0
771.983,0.00042617,2.0
772.493,0.000426019,2.0
773.003,0.000426043,2.0
773.513,0.000425988,2.0
774.013,0.000426131,2.0
774.543,0.000425954,2.0
775.053,0.000426075,2.0
775.573,0.000425963,2.0
776.083,0.000425793,2.0
776.603,0.000425818,2.0
777.093,0.000425879,2.0
777.583,0.000425993,2.0
778.093,0.000425762,2.0
778.623,0.00042564,2.0
779.123,0.000425863,2.0
779.623,0.00042583,2.0
780.143,0.000425574,2.0
780.713,0.000425591,2.0
781.203,0.000425565,2.0
781.702,0.00042558,2.0
782.232,0.000425498,2.0
782.762,0.00042557,2.0
783.292,0.000425565,2.0
783.812,0.000425739,2.0
784.332,0.000425622,2.0
784.852,0.000425717,2.0
785.352,0.00042573,2.0
785.862,0.000425839,2.0
786.362,0.000425535,2.0
786.882,0.000425701,2.0
787.382,0.000425733,2.0
787.902,0.000425854,2.0
788.402,0.000425801,2.0
788.902,0.000425771,2.0
789.392,0.000425608,2.0
789.932,0.000425694,2.0
790.412,0.000425576,2.0
790.912,0.000425394,2.0
791.422,0.000425584,2.0
791.932,0.000425463,2.0
792.412,0.00042537,2.0
792.942,0.00042537,2.0
793.472,0.000425448,2.0
793.972,0.000425339,2.0
794.472,0.000425595,2.0
795.002,0.000425616,2.0
795.512,0.000425726,2.0
796.072,0.000425558,2.0
796.582,0.000425554,2.0
797.112,0.000425742,2.0
797.632,0.000425563,2.0
798.141,0.000425494,2.0
798.651,0.000425355,2.0
799.141,0.000425539,2.0
799.651,0.000425421,2.0
800.161,0.000425554,2.0
800.661,0.000425597,2.0
801.171,0.000425761,2.0
801.681,0.000425535,2.0
802.181,0.000425614,2.0
802.701,0.00042547,2.0
803.211,0.000425458,2.0
803.721,0.000425326,2.0
804.221,0.000425587,2.0
804.721,0.000425338,2.0
805.221,0.000425146,2.0
805.731,0.000425217,2.0
806.261,0.000425203,2.0
806.781,0.000425152,2.0
807.321,0.000425144,2.0
807.831,0.000425184,2.0
808.341,0.000425216,2.0
808.851,0.000425107,2.0
809.371,0.000425026,2.0
809.891,0.000425065,2.0
810.411,0.000425034,2.0
810.941,0.00042518,2.0
811.491,0.000425023,2.0
812.011,0.000424907,2.0
812.521,0.000424917,2.0
813.031,0.000424722,2.0
813.541,0.000424747,2.0
814.041,0.000424861,2.0
814.571,0.000424739,2.0
815.100,0.000425117,2.0
815.620,0.000425032,2.0
816.140,0.000425103,2.0
816.650,0.000425225,2.0
817.180,0.000425225,2.0
817.700,0.000425245,2.0
818.200,0.000425196,2.0
818.730,0.000425073,2.0
819.230,0.000424919,2.0
819.750,0.000425103,2.0
820.270,0.000425049,2.0
820.780,0.000424936,2.0
821.290,0.000424905,2.0
821.830,0.000425135,2.0
822.360,0.000425076,2.0
822.870,0.00042497,2.0
823.370,0.00042504,2.0
823.870,0.000424918,2.0
824.360,0.00042503,2.0
824.870,0.000425231,2.0
825.400,0.000425231,2.0
825.920,0.000425082,2.0
826.440,0.000424696,2.0
827.000,0.000424936,2.0
827.540,0.000424989,2.0
828.050,0.000425084,2.0
828.570,0.000424938,2.0
829.080,0.000424895,2.0
829.590,0.000424961,2.0
830.130,0.000424948,2.0
830.650,0.000424838,2.0
831.139,0.000424788,2.0
831.629,0.000424826,2.0
832.149,0.000424947,2.0
832.659,0.000424863,2.0
833.189,0.000424788,2.0
833.719,0.000424705,2.0
834.239,0.000424709,2.0
834.739,0.000424722,2.0
835.259,0.000424731,2.0
835.759,0.000424691,2.0
836.249,0.000424668,2.0
836.759,0.000424502,2.0
837.279,0.000424522,2.0
837.789,0.000424608,2.0
838.299,0.000424495,2.0
838.809,0.000424573,2.0
839.329,0.00042452,2.0
839.839,0.000424592,2.0
840.339,0.000424644,2.0
840.849,0.000424582,2.0
841.359,0.000424513,2.0
841.879,0.000424505,2.0
842.399,0.000424479,2.0
842.909,0.000424393,2.0
843.409,0.000424347,2.0
843.929,0.000424368,2.0
844.429,0.000424248,2.0
844.939,0.00042426,2.0
845.429,0.000424088,2.0
845.949,0.000424092,2.0
846.469,0.000424321,2.0
846.989,0.000424194,2.0
847.509,0.000424352,2.0
848.018,0.000424385,2.0
848.548,0.000424387,2.0
849.088,0.000424246,2.0
849.608,0.000424318,2.0
850.128,0.000424156,2.0
850.658,0.000424192,2.0
851.178,0.000424247,2.0
851.698,0.000424143,2.0
852.218,0.000424186,2.0
852.748,0.000424377,2.0
853.258,0.000424249,2.0
853.778,0.00042428,2.0
854.288,0.000424078,2.0
854.818,0.000424224,2.0
855.338,0.000424196,2.0
855.858,0.000424209,2.0
856.368,0.0004242,2.0
856.888,0.000424289,2.0
857.408,0.000424188,2.0
857.988,0.000424037,2.0
858.508,0.000424231,2.0
859.038,0.000424113,2.0
859.558,0.000424095,2.0
860.088,0.00042402,2.0
860.588,0.000424091,2.0
861.118,0.000424211,2.0
861.638,0.000424085,2.0
862.168,0.000424043,2.0
862.718,0.000424011,2.0
863.248,0.000423874,2.0
863.768,0.000424021,2.0
864.247,0.000423866,2.0
864.757,0.000423837,2.0
865.247,0.000423768,2.0
865.767,0.000424066,2.0
866.287,0.000424052,2.0
866.777,0.000423802,2.0
867.267,0.000423884,2.0
867.777,0.000423712,2.0
868.317,0.000423703,2.0
868.807,0.000423703,2.0
869.307,0.000423661,2.0
869.837,0.000423614,2.0
870.327,0.000423739,2.0
870.837,0.000423839,2.0
871.347,0.000423745,2.0
871.877,0.000423806,2.0
872.387,0.000423814,2.0
872.877,0.000423837,2.0
873.437,0.000423654,2.0
873.957,0.00042375,2.0
874.477,0.000423614,2.0
874.977,0.000423704,2.0
875.487,0.000423733,2.0
875.987,0.000423598,2.0
876.507,0.000423464,2.0
877.037,0.000423353,2.0
877.587,0.000423353,2.0
878.097,0.000423329,2.0
878.627,0.000423386,2.0
879.147,0.000423124,2.0
879.687,0.00042311,2.0
880.207,0.000423013,2.0
880.736,0.000422935,2.0
881.276,0.000422903,2.0
881.796,0.000423063,2.0
882.326,0.00042286,2.0
882.866,0.000422932,2.0
883.386,0.000422938,2.0
883.896,0.000423081,2.0
884.406,0.000422986,2.0
884.926,0.000422839,2.0
885.456,0.000422808,2.0
885.986,0.000422846,2.0
886.506,0.000422665,2.0
887.016,0.000422716,2.0
887.546,0.000422742,2.0
888.066,0.000422759,2.0
888.626,0.000422616,2.0
889.156,0.000422633,2.0
889.666,0.000422454,2.0
890.186,0.000422504,2.0
890.706,0.000422378,2.0
891.236,0.000422578,2.0
891.756,0.000422148,2.0
892.276,0.000422186,2.0
892.796,0.000422297,2.0
893.336,0.000422404,2.0
893.846,0.000422417,2.0
894.336,0.000422391,2.0
894.856,0.000422361,2.0
895.376,0.000422524,2.0
895.886,0.000422434,2.0
896.396,0.000422363,2.0
896.915,0.000422406,2.0
897.435,0.000422556,2.0
897.965,0.00042271,2.0
898.495,0.000422558,2.0
899.005,0.000422504,2.0
899.525,0.000422432,2.0
900.065,0.000422493,2.0
900.595,0.000422572,2.0
901.125,0.000422529,2.0
901.645,0.000422506,2.0
902.195,0.000422369,2.0
902.705,0.000422556,2.0
903.235,0.000422605,2.0
903.795,0.000422419,2.0
904.315,0.000422491,2.0
904.855,0.000422404,2.0
905.375,0.00042231,2.0
905.885,0.000422387,2.0
906.405,0.000422288,2.0
906.915,0.000422322,2.0
907.415,0.000422332,2.0
907.925,0.000422332,2.0
908.445,0.000422171,2.0
908.985,0.000422275,2.0
909.515,0.000422127,2.0
910.045,0.000422206,2.0
910.545,0.000422366,2.0
911.085,0.000422229,2.0
911.605,0.000422318,2.0
912.115,0.000422179,2.0
912.645,0.000422215,2.0
913.145,0.000422128,2.0
913.634,0.000422159,2.0
914.164,0.000422215,2.0
914.694,0.000422119,2.0
915.234,0.000422212,2.0
915.754,0.000422063,2.0
916.294,0.000421953,2.0
916.804,0.000422249,2.0
917.324,0.000422125,2.0
917.854,0.000421884,2.0
918.344,0.000421901,2.0
918.914,0.000421859,2.0
919.444,0.000421731,2.0
919.984,0.000421748,2.0
920.504,0.000421751,2.0
921.044,0.000421612,2.0
921.564,0.000421611,2.0
922.084,0.000421517,2.0
922.604,0.000421507,2.0
923.124,0.000421689,2.0
923.634,0.00042178,2.0
924.164,0.000421635,2.0
924.684,0.000421499,2.0
925.204,0.000421495,2.0
925.724,0.00042164,2.0
926.264,0.000421592,2.0
926.794,0.000421398,2.0
927.314,0.000421544,2.0
927.844,0.000421429,2.0
928.344,0.000421507,2.0
928.864,0.000421481,2.0
929.384,0.000421474,2.0
929.903,0.000421392,2.0
930.423,0.000421336,2.0
930.923,0.000421257,2.0
931.433,0.000421451,2.0
931.973,0.00042123,2.0
932.453,0.000421253,2.0
932.963,0.000421276,2.0
933.483,0.000421486,2.0
934.023,0.000421283,2.0
934.523,0.000421441,2.0
935.043,0.000421474,2.0
935.563,0.000421395,2.0
936.063,0.000421249,2.0
936.563,0.000421333,2.0
937.093,0.000421159,2.0
937.603,0.000421166,2.0
938.133,0.000421177,2.0
938.673,0.000421388,2.0
939.183,0.000421213,2.0
939.703,0.000421208,2.0
940.223,0.000421396,2.0
940.753,0.000421414,2.0
941.323,0.000421262,2.0
941.833,0.000420942,2.0
942.363,0.000420991,2.0
942.883,0.000421133,2.0
943.413,0.000420846,2.0
943.923,0.000420847,2.0
944.463,0.000421118,2.0
944.993,0.000420926,2.0
945.513,0.000420965,2.0
946.053,0.000420831,2.0
946.572,0.00042091,2.0
947.092,0.000420822,2.0
947.602,0.000420986,2.0
948.132,0.000421008,2.0
948.642,0.000420916,2.0
949.202,0.000420775,2.0
949.722,0.000420842,2.0
950.242,0.000421007,2.0
950.752,0.000420798,2.0
951.262,0.000420852,2.0
951.782,0.000420728,2.0
952.302,0.000420874,2.0
952.802,0.000420763,2.0
953.332,0.000420804,2.0
953.852,0.00042068,2.0
954.412,0.000420718,2.0
954.952,0.000420684,2.0
955.482,0.000420666,2.0
956.012,0.000420785,2.0
956.552,0.00042073,2.0
957.082,0.000420517,2.0
957.602,0.000420504,2.0
958.122,0.000420513,2.0
958.672,0.000420548,2.0
959.192,0.000420507,2.0
959.722,0.000420573,2.0
960.252,0.000420623,2.0
960.792,0.000420505,2.0
961.312,0.000420617,2.0
961.852,0.000420471,2.0
962.392,0.000420338,2.0
962.961,0.0004205,2.0
963.491,0.000420524,2.0
964.011,0.000420367,2.0
964.601,0.000420094,2.0
965.151,0.000420246,2.0
965.671,0.00042019,2.0
966.211,0.000420243,2.0
966.751,0.000420238,2.0
967.311,0.000420017,2.0
967.861,0.000420144,2.0
968.401,0.00042025,2.0
968.951,0.000420212,2.0
969.491,0.00042017,2.0
970.021,0.000420065,2.0
970.561,0.000420158,2.0
971.101,0.000420048,2.0
971.641,0.000420189,2.0
972.161,0.000420235,2.0
972.691,0.000419991,2.0
973.221,0.000420192,2.0
973.781,0.000420049,2.0
974.321,0.000420389,2.0
974.861,0.000420376,2.0
975.401,0.000420183,2.0
975.941,0.000420319,2.0
976.471,0.000420077,2.0
977.001,0.000420072,2.0
977.541,0.000420098,2.0
978.081,0.000420133,2.0
978.641,0.000420111,2.0
979.230,0.00041998,2.0
979.850,0.000420039,2.0
980.430,0.000419866,2.0
980.980,0.000420039,2.0
981.540,0.000419912,2.0
982.090,0.000419925,2.0
982.630,0.00041985,2.0
983.210,0.000420048,2.0
983.750,0.000419737,2.0
984.300,0.000419844,2.0
984.840,0.000419843,2.0
985.410,0.000419748,2.0
986.000,0.000419722,2.0
986.540,0.00041957,2.0
987.100,0.000419632,2.0
987.630,0.000419644,2.0
988.160,0.000419408,2.0
988.710,0.00041961,2.0
989.250,0.000419581,2.0
989.800,0.000419761,2.0
990.340,0.000419481,2.0
990.890,0.000419495,2.0
991.430,0.000419582,2.0
991.980,0.000419477,2.0
992.490,0.000419549,2.0
993.030,0.000419371,2.0
993.570,0.000419303,2.0
994.100,0.00041949,2.0
994.640,0.000419294,2.0
995.240,0.000419487,2.0
995.799,0.00041932,2.0
996.349,0.000419384,2.0
996.889,0.000419267,2.0
997.409,0.000419275,2.0
997.949,0.000419251,2.0
998.489,0.000419236,2.0
999.059,0.000419276,2.0
999.619,0.00041919,2.0
1000.149,0.000419242,2.0
1000.669,0.000419235,2.0
1001.229,0.000419153,2.0
1001.759,0.000419317,2.0
1002.299,0.000419102,2.0
1002.829,0.000419146,2.0
1003.379,0.000418935,2.0
1003.919,0.000418954,2.0
1004.469,0.000418907,2.0
1004.999,0.000418998,2.0
1005.539,0.000419022,2.0
1006.069,0.000419025,2.0
1006.609,0.000419151,2.0
1007.139,0.000418907,2.0
1007.679,0.000419128,2.0
1008.229,0.000419019,2.0
1008.769,0.000418919,2.0
1009.299,0.000418869,2.0
1009.849,0.000418818,2.0
1010.419,0.000418954,2.0
1010.969,0.000418922,2.0
1011.519,0.000418926,2.0
1012.049,0.00041885,2.0
1012.578,0.000418901,2.0
1013.118,0.000418892,2.0
1013.648,0.000419003,2.0
1014.188,0.000418867,2.0
1014.718,0.000418839,2.0
1015.258,0.000418931,2.0
1015.788,0.000418838,2.0
1016.308,0.000418806,2.0
1016.888,0.00041885,2.0
1017.428,0.000418712,2.0
1017.978,0.000418663,2.0
1018.488,0.000418613,2.0
1019.008,0.000418749,2.0
1019.528,0.000418798,2.0
1020.068,0.000418521,2.0
1020.658,0.000418681,2.0
1021.208,0.000418679,2.0
1021.778,0.000418665,2.0
1022.318,0.000418484,2.0
1022.868,0.000418366,2.0
1023.388,0.000418339,2.0
1023.938,0.000418323,2.0
1024.488,0.000417923,2.0
1025.028,0.000417968,2.0
1025.598,0.000417733,2.0
1026.118,0.000417858,2.0
1026.638,0.000417887,2.0
1027.168,0.000417523,2.0
1027.748,0.000417545,2.0
1028.288,0.000417197,2.0
1028.837,0.000417134,2.0
1029.367,0.000417042,2.0
1029.917,0.000416419,2.0
1030.457,0.000415958,2.0
1031.007,0.000415881,2.0
1031.537,0.000415759,2.0
1032.057,0.000415537,2.0
1032.617,0.000415127,2.0
1033.157,0.000414698,2.0
1033.697,0.000414482,2.0
1034.247,0.000414183,2.0
1034.777,0.000413926,2.0
1035.317,0.000413797,2.0
1035.847,0.000413589,2.0
1036.367,0.00041314,2.0
1036.887,0.000413208,2.0
1037.437,0.00041308,2.0
1037.987,0.000412695,2.0
1038.507,0.000412571,2.0
1039.047,0.000412462,2.0
1039.587,0.000412182,2.0
1040.127,0.000411855,2.0
1040.717,0.000411797,2.0
1041.257,0.000411401,2.0
1041.787,0.00041129,2.0
1042.317,0.000411046,2.0
1042.847,0.000410963,2.0
1043.367,0.000410591,2.0
1043.897,0.000410464,2.0
1044.437,0.000410243,2.0
1044.996,0.000410176,2.0
1045.556,0.000409896,2.0
1046.066,0.000409665,2.0
1046.586,0.000409576,2.0
1047.126,0.000409192,2.0
1047.676,0.000409038,2.0
1048.186,0.000409155,2.0
1048.716,0.000408981,2.0
1049.276,0.000408528,2.0
1049.796,0.000408367,2.0
1050.326,0.000408335,2.0
1050.876,0.000408026,2.0
1051.406,0.000407906,2.0
1051.976,0.000407841,2.0
1052.516,0.000407357,2.0
1053.046,0.000407236,2.0
1053.576,0.000407197,2.0
1054.116,0.000406933,2.0
1054.656,0.000406744,2.0
1055.186,0.000406644,2.0
1055.716,0.000406528,2.0
1056.296,0.000406581,2.0
1056.846,0.000406301,2.0
1057.366,0.000406345,2.0
1057.896,0.000406182,2.0
1058.446,0.000405859,2.0
1058.996,0.000405776,2.0
1059.536,0.000405679,2.0
1060.076,0.000405395,2.0
1060.616,0.000405282,2.0
1061.146,0.000405189,2.0
1061.685,0.000404934,2.0
1062.235,0.000404739,2.0
1062.795,0.000404782,2.0
1063.325,0.000404519,2.0
1063.855,0.000404434,2.0
1064.395,0.000404451,2.0
1064.945,0.000404238,2.0
1065.495,0.000404048,2.0
1066.045,0.000403867,2.0
1066.565,0.000403595,2.0
1067.075,0.00040347,2.0
1067.615,0.00040316,2.0
1068.285,0.000403138,2.0
1068.855,0.000402987,2.0
1069.385,0.000402874,2.0
1069.995,0.000402606,2.0
1070.545,0.000402641,2.0
1071.135,0.000402375,2.0
1071.725,0.000402305,2.0
1072.295,0.000402234,2.0
1072.865,0.000402025,2.0
1073.485,0.000401945,2.0
1074.075,0.000401856,2.0
1074.695,0.0004018,2.0
1075.335,0.000401299,2.0
1075.915,0.000401229,2.0
1076.445,0.000401121,2.0
1077.025,0.000400996,2.0
1077.585,0.00040089,2.0
1078.134,0.000400854,2.0
1078.674,0.000400662,2.0
1079.224,0.000400614,2.0
1079.794,0.000400274,2.0
1080.344,0.000400445,2.0
1080.914,0.0004001,2.0
1081.454,0.00040015,2.0
1081.964,0.000400009,2.0
1082.504,0.000399953,2.0
1083.034,0.000399882,2.0
1083.554,0.000399673,2.0
1084.084,0.000399766,2.0
1084.634,0.00039965,2.0
1085.164,0.000399441,2.0
1085.704,0.000399318,2.0
1086.254,0.000399235,2.0
1086.844,0.000399297,2.0
1087.374,0.000399039,2.0
1087.924,0.000398948,2.0
1088.444,0.000398878,2.0
1088.984,0.000398778,2.0
1089.534,0.000398916,2.0
1090.074,0.000398635,2.0
1090.624,0.000398605,2.0
1091.134,0.000398622,2.0
1091.684,0.000398531,2.0
1092.204,0.000398458,2.0
1092.764,0.000398365,2.0
1093.304,0.000398306,2.0
1093.854,0.000398155,2.0
1094.393,0.00039808,2.0
1094.933,0.000397962,2.0
1095.483,0.000397955,2.0
1096.013,0.000397838,2.0
1096.543,0.000397763,2.0
1097.103,0.000397454,2.0
1097.653,0.000397518,2.0
1098.203,0.000397521,2.0
1098.763,0.000397474,2.0
1099.283,0.000397484,2.0
1099.783,0.000397072,2.0
1100.343,0.000397155,2.0
1100.893,0.000397081,2.0
1101.433,0.000396748,2.0
1102.023,0.000396925,2.0
1102.583,0.000396904,2.0
1103.153,0.000396732,2.0
1103.703,0.000396868,2.0
1104.233,0.000397,2.0
1104.773,0.000396791,2.0
1105.323,0.00039662,2.0
1105.863,0.000396564,2.0
1106.423,0.000396502,2.0
1106.983,0.000396417,2.0
1107.513,0.000396355,2.0
1108.033,0.000396316,2.0
1108.593,0.000396364,2.0
1109.123,0.000396013,2.0
1109.683,0.00039602,2.0
1110.223,0.000396137,2.0
1110.772,0.000395949,2.0
1111.312,0.000395757,2.0
1111.852,0.000395819,2.0
1112.412,0.000395683,2.0
1112.952,0.000395701,2.0
1113.492,0.000395738,2.0
1114.042,0.000395542,2.0
1114.602,0.000395468,2.0
1115.142,0.000395377,2.0
1115.702,0.000395247,2.0
1116.242,0.000395098,2.0
1116.742,0.000395139,2.0
1117.302,0.000395197,2.0
1117.832,0.000394974,2.0
1118.402,0.000394847,2.0
1118.932,0.000394844,2.0
1119.482,0.000394845,2.0
1120.032,0.000394977,2.0
1120.562,0.000394911,2.0
1121.112,0.000394785,2.0
1121.652,0.0003948,2.0
1122.192,0.000394601,2.0
1122.732,0.000394568,2.0
1123.272,0.000394554,2.0
1123.832,0.000394534,2.0
1124.352,0.00039449,2.0
1124.862,0.000394248,2.0
1125.422,0.000394167,2.0
1125.952,0.000394217,2.0
1126.482,0.000394033,2.0
1127.022,0.000393891,2.0
1127.561,0.000393759,2.0
1128.121,0.000393736,2.0
1128.681,0.000393654,2.0
1129.231,0.000393684,2.0
1129.781,0.00039368,2.0
1130.351,0.000393677,2.0
1130.891,0.000393654,2.0
1131.421,0.00039354,2.0
1131.971,0.000393602,2.0
1132.521,0.00039344,2.0
1133.081,0.00039338,2.0
1133.621,0.000393258,2.0
1134.131,0.000393542,2.0
1134.681,0.000393263,2.0
1135.251,0.00039324,2.0
1135.791,0.000393355,2.0
1136.351,0.000393225,2.0
1136.891,0.000393082,2.0
1137.431,0.000393107,2.0
1137.981,0.000392851,2.0
1138.541,0.000392991,2.0
1139.081,0.000392785,2.0
1139.641,0.000392921,2.0
1140.161,0.000392852,2.0
1140.681,0.000392921,2.0
1141.221,0.000392818,2.0
1141.761,0.000392821,2.0
1142.311,0.000392723,2.0
1142.851,0.000392462,2.0
1143.411,0.00039242,2.0
1143.980,0.000392503,2.0
1144.530,0.000392332,2.0
1145.070,0.000392493,2.0
1145.650,0.000392324,2.0
1146.190,0.000392061,2.0
1146.760,0.000392071,2.0
1147.320,0.000392046,2.0
1147.920,0.000392103,2.0
1148.460,0.000391936,2.0
1149.020,0.000392014,2.0
1149.580,0.000391786,2.0
1150.140,0.000391608,2.0
1150.700,0.000391709,2.0
1151.270,0.00039173,2.0
1151.830,0.000391766,2.0
1152.390,0.000391574,2.0
1152.950,0.000391322,2.0
1153.480,0.000391401,2.0
1154.000,0.000391436,2.0
1154.570,0.000391512,2.0
1155.130,0.000391142,2.0
1155.680,0.000391189,2.0
1156.240,0.00039112,2.0
1156.790,0.00039126,2.0
1157.360,0.000391099,2.0
1157.910,0.000390912,2.0
1158.500,0.000391012,2.0
1159.070,0.00039081,2.0
1159.620,0.000391045,2.0
1160.159,0.000390817,2.0
1160.719,0.000390996,2.0
1161.269,0.000390842,2.0
1161.809,0.000390843,2.0
1162.379,0.000390558,2.0
1162.949,0.000390439,2.0
1163.549,0.000390613,2.0
1164.119,0.000390509,2.0
1164.709,0.000390154,2.0
1165.269,0.000390388,2.0
1165.809,0.00039022,2.0
1166.339,0.00039017,2.0
1166.949,0.000390137,2.0
1167.589,0.00039035,2.0
1168.139,0.000390238,2.0
1168.679,0.000390284,2.0
1169.249,0.00039019,2.0
1169.799,0.000390022,2.0
1170.369,0.000390009,2.0
1170.899,0.000389947,2.0
1171.449,0.000390109,2.0
1171.999,0.000389727,2.0
1172.569,0.000389785,2.0
1173.119,0.000389619,2.0
1173.679,0.000389601,2.0
1174.239,0.000389757,2.0
1174.799,0.000389683,2.0
1175.349,0.000389905,2.0
1175.919,0.000389808,2.0
1176.509,0.000389466,2.0
1177.048,0.000389549,2.0
1177.588,0.000389614,2.0
1178.158,0.000389538,2.0
1178.758,0.000389376,2.0
1179.318,0.000389394,2.0
1179.868,0.000389329,2.0
1180.428,0.000389363,2.0
1181.008,0.000389402,2.0
1181.568,0.000389315,2.0
1182.118,0.000388929,2.0
1182.668,0.000389014,2.0
1183.268,0.000388845,2.0
1183.838,0.000388839,2.0
1184.398,0.000388925,2.0
1184.938,0.000388782,2.0
1185.518,0.000388782,2.0
1186.068,0.000388895,2.0
1186.628,0.000388958,2.0
1187.158,0.000388674,2.0
1187.698,0.000388691,2.0
1188.278,0.000388744,2.0
1188.838,0.000388708,2.0
1189.378,0.000388706,2.0
1189.938,0.000388716,2.0
1190.508,0.000388672,2.0
1191.078,0.000388408,2.0
1191.628,0.000388614,2.0
1192.178,0.000388486,2.0
1192.738,0.000388402,2.0
1193.267,0.000388398,2.0
1193.857,0.000388349,2.0
1194.407,0.000388374,2.0
1194.967,0.000388279,2.0
1195.527,0.00038811,2.0
1196.077,0.000388374,2.0
1196.627,0.000388107,2.0
1197.187,0.000388246,2.0
1197.767,0.000387999,2.0
1198.337,0.000387969,2.0
1198.897,0.000387745,2.0
1199.437,0.000387732,2.0
1199.997,0.000387824,2.0
1200.577,0.000387734,2.0
1201.147,0.000387635,2.0
1201.717,0.000387613,2.0
1202.277,0.000387672,2.0
1202.827,0.000387584,2.0
1203.387,0.000387651,2.0
1203.947,0.000387913,2.0
1204.507,0.000387546,2.0
1205.077,0.000387565,2.0
1205.627,0.000387717,2.0
1206.177,0.000387534,2.0
1206.737,0.000387639,2.0
1207.297,0.000387478,2.0
1207.857,0.000387682,2.0
1208.407,0.00038757,2.0
1209.017,0.000387439,2.0
1209.576,0.000387467,2.0
1210.126,0.000387353,2.0
1210.706,0.000387247,2.0
1211.256,0.000387247,2.0
1211.816,0.000387441,2.0
1212.396,0.000387059,2.0
1212.966,0.000387331,2.0
1213.516,0.00038697,2.0
1214.076,0.000386968,2.0
1214.596,0.000387071,2.0
1215.136,0.000386927,2.0
1215.696,0.000387006,2.0
1216.246,0.000386969,2.0
1216.806,0.000387104,2.0
1217.366,0.000387121,2.0
1217.936,0.000387125,2.0
1218.486,0.000387031,2.0
1219.046,0.000386924,2.0
1219.596,0.000386887,2.0
1220.176,0.000386631,2.0
1220.706,0.000386571,2.0
1221.236,0.000386519,2.0
1221.836,0.000386666,2.0
1222.396,0.000386525,2.0
1222.956,0.000386407,2.0
1223.516,0.000386499,2.0
1224.116,0.000386229,2.0
1224.666,0.0003862,2.0
1225.236,0.000386298,2.0
1225.806,0.000386261,2.0
1226.345,0.000386159,2.0
1226.875,0.000386184,2.0
1227.455,0.000386167,2.0
1228.015,0.000386126,2.0
1228.605,0.000386147,2.0
1229.145,0.000386136,2.0
1229.725,0.000386224,2.0
1230.265,0.000386106,2.0
1230.815,0.000386235,2.0
1231.365,0.000386146,2.0
1231.885,0.000386122,2.0
1232.425,0.000386298,2.0
1232.975,0.000386398,2.0
1233.545,0.000386313,2.0
1234.105,0.000386454,2.0
1234.685,0.000386364,2.0
1235.235,0.000386472,2.0
1235.805,0.000386597,2.0
1236.365,0.000386517,2.0
1236.935,0.000386422,2.0
1237.475,0.000386667,2.0
1238.035,0.000386665,2.0
1238.605,0.0003866,2.0
1239.225,0.000386883,2.0
1239.805,0.000386951,2.0
1240.365,0.000386975,2.0
1240.945,0.000386977,2.0
1241.565,0.000387099,2.0
1242.125,0.00038713,2.0
1242.674,0.000387179,2.0
1243.214,0.000387211,2.0
1243.794,0.000387272,2.0
1244.364,0.00038733,2.0
1244.924,0.0003873,2.0
1245.514,0.000387603,2.0
1246.074,0.000387573,2.0
1246.644,0.000387661,2.0
1247.204,0.000387963,2.0
1247.774,0.000388213,2.0
1248.324,0.000388303,2.0
1248.854,0.000388597,2.0
1249.424,0.000388635,2.0
1249.984,0.000388743,2.0
1250.564,0.000388886,2.0
1251.154,0.00038918,2.0
1251.704,0.000389334,2.0
1252.254,0.000389647,2.0
1252.824,0.000389695,2.0
1253.374,0.00038975,2.0
1253.924,0.000390047,2.0
1254.494,0.000390021,2.0
1255.034,0.000390286,2.0
1255.614,0.000390629,2.0
1256.154,0.00039076,2.0
1256.724,0.000390785,2.0
1257.284,0.000390818,2.0
1257.864,0.00039104,2.0
1258.444,0.000391145,2.0
1259.003,0.000391401,2.0
1259.553,0.000391403,2.0
1260.113,0.000391413,2.0
1260.673,0.000391674,2.0
1261.233,0.000391774,2.0
1261.823,0.000391949,2.0
1262.413,0.000392104,2.0
1262.983,0.000392176,2.0
1263.553,0.000392296,2.0
1264.073,0.000392561,2.0
1264.603,0.00039258,2.0
1265.213,0.000392742,2.0
1265.753,0.000392793,2.0
1266.303,0.00039293,2.0
1266.863,0.000393058,2.0
1267.453,0.000392996,2.0
1268.003,0.000393126,2.0
1268.563,0.000393409,2.0
1269.123,0.000393367,2.0
1269.703,0.00039348,2.0
1270.263,0.000393351,2.0
1270.833,0.000393509,2.0
1271.403,0.000393469,2.0
1271.943,0.000393792,2.0
1272.503,0.000393833,2.0
1273.053,0.000393903,2.0
1273.603,0.000393915,2.0
1274.153,0.000394146,2.0
1274.723,0.000394109,2.0
1275.283,0.000394379,2.0
1275.852,0.00039445,2.0
1276.382,0.000394558,2.0
1276.972,0.000394634,2.0
1277.522,0.0003947,2.0
1278.102,0.000394838,2.0
1278.652,0.000394729,2.0
1279.222,0.000394756,2.0
1279.772,0.000394895,2.0
1280.352,0.000394911,2.0
1280.922,0.000395039,2.0
1281.502,0.000395133,2.0
1282.042,0.000395387,2.0
1282.572,0.000395335,2.0
1283.142,0.000395576,2.0
1283.732,0.000395579,2.0
1284.292,0.000395694,2.0
1284.892,0.000395813,2.0
1285.452,0.000395726,2.0
1286.032,0.000395834,2.0
1286.602,0.000395844,2.0
1287.172,0.000395977,2.0
1287.712,0.000395805,2.0
1288.252,0.000395727,2.0
1288.822,0.00039607,2.0
1289.382,0.000396057,2.0
1289.942,0.000396233,2.0
1290.502,0.000396314,2.0
1291.052,0.000396491,2.0
1291.622,0.000396655,2.0
1292.171,0.000396639,2.0
1292.741,0.000396734,2.0
1293.311,0.000396817,2.0
1293.871,0.000396898,2.0
1294.401,0.00039695,2.0
1294.941,0.000396891,2.0
1295.511,0.000397081,2.0
1296.071,0.000397022,2.0
1296.631,0.000397007,2.0
1297.191,0.000397204,2.0
1297.801,0.000397382,2.0
1298.491,0.000397311,2.0
1299.111,0.000397222,2.0
1299.691,0.000397555,2.0
1300.301,0.000397531,2.0
1300.871,0.000397495,2.0
1301.441,0.000397562,2.0
1302.011,0.000397626,2.0
1302.571,0.000397662,2.0
1303.121,0.000397642,2.0
1303.681,0.00039781,2.0
1304.261,0.000397779,2.0
1304.821,0.000397809,2.0
1305.391,0.000397899,2.0
1305.981,0.000397856,2.0
1306.551,0.000397784,2.0
1307.111,0.000397874,2.0
1307.671,0.000397928,2.0
1308.231,0.000397844,2.0
1308.760,0.000398154,2.0
1309.310,0.000398047,2.0
1309.910,0.000397944,2.0
1310.490,0.000398064,2.0
1311.060,0.000398139,2.0
1311.630,0.000397967,2.0
1312.190,0.000398099,2.0
1312.790,0.000398235,2.0
1314.460,0.000398304,2.0
1315.000,0.000398644,2.0
1315.770,0.000398428,2.0
1316.410,0.000398316,2.0
1317.010,0.000398473,2.0
1317.540,0.00039836,2.0
1318.080,0.00039838,2.0
1318.640,0.000398501,2.0
1319.180,0.000398411,2.0
1319.740,0.00039839,2.0
1320.280,0.0003986,2.0
1320.860,0.000398768,2.0
1321.420,0.000398781,2.0
1321.980,0.000398786,2.0
1322.560,0.000398875,2.0
1323.110,0.000398605,2.0
1323.650,0.000398672,2.0
1324.200,0.00039875,2.0
1324.769,0.000398773,2.0
1325.349,0.000398605,2.0
1325.919,0.000398647,2.0
1326.469,0.000398954,2.0
1327.009,0.000398822,2.0
1327.589,0.000398759,2.0
1328.139,0.000398856,2.0
1328.699,0.000398916,2.0
1329.239,0.000398874,2.0
1329.789,0.000399053,2.0
1330.339,0.000399063,2.0
1330.939,0.00039894,2.0
1331.529,0.00039894,2.0
1332.109,0.000399119,2.0
1332.689,0.000399139,2.0
1333.239,0.000399184,2.0
1333.819,0.000399058,2.0
1334.359,0.000399081,2.0
1334.939,0.000399102,2.0
1335.519,0.000399065,2.0
1336.099,0.000399185,2.0
1336.679,0.000399275,2.0
1337.269,0.000399292,2.0
1337.849,0.000399188,2.0
1338.439,0.000399469,2.0
1338.989,0.0003992,2.0
1339.539,0.000399388,2.0
1340.139,0.000399292,2.0
1340.709,0.000399376,2.0
1341.298,0.000399406,2.0
1341.868,0.000399445,2.0
1342.448,0.000399389,2.0
1343.028,0.000399425,2.0
1343.578,0.000399379,2.0
1344.158,0.000399463,2.0
1344.748,0.000399355,2.0
1345.348,0.000399381,2.0
1345.928,0.000399314,2.0
1346.538,0.000399392,2.0
1347.108,0.000399605,2.0
1347.668,0.000399398,2.0
1348.218,0.000399556,2.0
1348.768,0.000399424,2.0
1349.328,0.000399383,2.0
1349.908,0.000399699,2.0
1350.478,0.000399562,2.0
1351.038,0.000399542,2.0
1351.608,0.000399566,2.0
1352.198,0.000399519,2.0
1352.778,0.000399272,2.0
1353.328,0.000399195,2.0
1353.878,0.000399399,2.0
1354.458,0.000399595,2.0
1355.038,0.000399506,2.0
1355.608,0.000399439,2.0
1356.188,0.00039963,2.0
1356.758,0.000399587,2.0
1357.328,0.000399623,2.0
1357.897,0.000399531,2.0
1358.457,0.000399535,2.0
1359.017,0.000399548,2.0
1359.587,0.000399632,2.0
1360.157,0.000399565,2.0
1360.757,0.000399536,2.0
1361.317,0.00039939,2.0
1361.947,0.000399421,2.0
1362.517,0.000399317,2.0
1363.077,0.000399477,2.0
1363.627,0.000399344,2.0
1364.197,0.000399497,2.0
1364.767,0.000399309,2.0
1365.357,0.000399411,2.0
1365.937,0.000399365,2.0
1366.487,0.000399488,2.0
1367.057,0.000399457,2.0
1367.647,0.000399336,2.0
1368.207,0.000399467,2.0
1368.787,0.000399516,2.0
1369.357,0.000399498,2.0
1369.927,0.00039938,2.0
1370.507,0.000399325,2.0
1371.107,0.000399389,2.0
1371.677,0.000399612,2.0
1372.277,0.000399525,2.0
1372.817,0.000399652,2.0
1373.387,0.000399685,2.0
1373.997,0.000399491,2.0
1374.576,0.000399669,2.0
1375.176,0.000399796,2.0
1375.756,0.000399457,2.0
1376.326,0.000399473,2.0
1376.906,0.000399572,2.0
1377.516,0.000399579,2.0
1378.086,0.00039951,2.0
1378.676,0.000399382,2.0
1379.246,0.000399287,2.0
1379.826,0.000399299,2.0
1380.396,0.000399414,2.0
1380.936,0.000399454,2.0
1381.536,0.00039937,2.0
1382.096,0.000399158,2.0
1382.686,0.000399199,2.0
1383.246,0.000399156,2.0
1383.816,0.000399225,2.0
1384.386,0.000399317,2.0
1384.956,0.000399451,2.0
1385.506,0.000399251,2.0
1386.076,0.00039916,2.0
1386.656,0.000399137,2.0
1387.236,0.000399144,2.0
1387.836,0.000399082,2.0
1388.416,0.000399249,2.0
1388.986,0.000399326,2.0
1389.576,0.000399324,2.0
1390.106,0.000399151,2.0
1390.676,0.000399054,2.0
1391.255,0.00039935,2.0
1391.845,0.000399284,2.0
1392.425,0.000399183,2.0
1393.035,0.00039923,2.0
1393.615,0.000399116,2.0
1394.185,0.000399082,2.0
1394.745,0.000399109,2.0
1395.305,0.000399009,2.0
1395.875,0.000398911,2.0
1396.455,0.00039887,2.0
1397.095,0.000398848,2.0
1397.685,0.00039885,2.0
1398.265,0.000398902,2.0
1398.815,0.000398889,2.0
1399.375,0.000398891,2.0
1399.935,0.000398626,2.0
1400.515,0.000398763,2.0
1401.085,0.000398711,2.0
1401.655,0.000398607,2.0
1402.245,0.00039866,2.0
1402.825,0.000398624,2.0
1403.385,0.00039836,2.0
1403.955,0.000398509,2.0
1404.545,0.000398628,2.0
1405.125,0.000398549,2.0
1405.705,0.00039889,2.0
1406.285,0.00039942,2.0
1406.885,0.000400031,2.0
1407.434,0.000400521,2.0
1408.004,0.0004011,2.0
1408.654,0.000401244,2.0
1409.264,0.000401922,2.0
1409.864,0.00040223,2.0
1410.464,0.000402511,2.0
